#"+EI Scan (rt: 2.649-2.702 min, 10 scans) R8M1.D  Subtract "
#Point,X(Thompsons),Y(Counts)
40.0993 4013.3232421875
41.0796 102009.03125
42.0800 13846.720703125
43.0895 76534.8828125
44.0401 7525.9453125
45.0321 3920.86987304688
45.9508 136.975082397461
46.0521 1065.07250976563
47.0571 18802.3515625
48.0100 570.807739257813
48.8100 70.439338684082
48.9200 106.982666015625
49.0133 81.619140625
50.0408 2914.40747070313
51.0443 9384.5087890625
52.0306 3447.83056640625
53.0585 8820.1806640625
54.0600 5937.28466796875
55.0789 49791.30859375
56.0588 18061.0625
57.0420 3138.16552734375
58.1300 2221.77099609375
59.0389 63550.2578125
60.0253 4432.60693359375
61.0498 5395.29248046875
62.0193 8222.0673828125
63.0298 11824.5966796875
64.0277 5488.40185546875
65.0283 6006.88671875
66.0269 1726.12390136719
67.0593 10019.298828125
68.1003 5270.77880859375
69.0686 72704.5
70.0795 19589.4140625
71.0796 33326.390625
72.0702 13064.8701171875
73.0480 12448.2333984375
74.0342 2788.60620117188
75.0361 12551.025390625
76.0402 27577.3203125
77.0368 48515.23828125
78.0342 10425.923828125
79.0144 2220.50854492188
79.8252 41.5563125610352
79.9400 246.166549682617
80.0396 227.087951660156
81.0027 2684.14965820313
82.0509 2266.4931640625
83.0474 6386.611328125
83.9564 244.394805908203
84.0600 1629.14990234375
84.1786 66.4187316894531
85.0320 3163.35180664063
86.0193 2894.29809570313
87.0499 10355.7548828125
88.0400 70452.1796875
89.0400 56446.74609375
90.0398 125551.5703125
91.0288 18877.609375
92.0298 4286.4921875
93.0103 906.599365234375
93.1900 271.914978027344
93.6600 157.257904052734
93.9001 65.58837890625
94.0100 260.763244628906
94.1306 1.42881011962891
95.0211 799.020324707031
96.0064 1142.92138671875
96.9200 245.068084716797
97.0407 753.679809570313
97.1316 344.491394042969
98.0598 17209.6875
99.0310 1342.53247070313
99.1114 873.463439941406
99.8200 257.078186035156
99.9189 574.86181640625
100.0220 1070.34375
100.1800 424.719909667969
101.0471 6082.53173828125
102.0401 69938.9609375
103.0397 193543.234375
104.0300 60069.93359375
105.0489 7261.71728515625
106.0000 257.061248779297
106.1600 1210.29516601563
106.3900 488.752532958984
106.5600 353.864471435547
106.7289 782.428161621094
106.8500 28.177734375
107.0000 234.870162963867
107.0931 189.54052734375
107.2793 594.060119628906
107.6700 362.775054931641
107.8489 175.375274658203
107.9600 165.718536376953
109.0165 2485.03344726563
109.8839 91.5628051757813
110.0221 418.729797363281
111.0800 535.511352539063
111.8750 147.504089355469
112.0536 82.4405517578125
113.3100 176.668746948242
113.4400 433.334381103516
113.6400 3417.20190429688
113.8427 1374.79016113281
114.0709 942.159912109375
115.0383 9215.603515625
116.0395 15656.681640625
117.0390 66564.4609375
118.0400 22010.119140625
119.0492 6505.30615234375
119.9806 587.837219238281
120.0700 547.931274414063
120.9309 424.989044189453
121.0124 3547.97778320313
121.8511 70.5588531494141
122.0600 460.989776611328
122.9828 659.898559570313
123.8200 48.2846450805664
123.9792 96.8156356811523
124.1000 84.125373840332
124.9589 34.9579772949219
125.0500 331.044250488281
125.6900 24.7600440979004
125.9433 505.49169921875
126.1800 81.4223098754883
127.0200 3695.19970703125
128.0464 9796.5537109375
129.0392 88306.7578125
130.0597 114909.375
131.0499 256928.6875
132.0600 33755.0078125
133.0266 3979.59252929688
133.7700 31.167501449585
133.9540 353.391143798828
134.1800 473.677581787109
134.3400 71.3816375732422
134.8300 255.48078918457
134.9921 1125.041015625
136.0342 569.187622070313
136.1300 145.448516845703
137.0166 19474.259765625
137.9934 2064.421875
138.9742 1484.60778808594
139.7928 50.1475868225098
139.9956 794.648193359375
141.0057 2641.3466796875
142.0490 7336.39892578125
143.0480 20269.587890625
144.0572 42562.23828125
145.0400 740805.6875
146.0400 73899.53125
147.0384 6301.65283203125
147.9400 407.513732910156
148.0567 716.810852050781
149.0132 2715.62646484375
149.9304 102.24658203125
150.0400 257.56884765625
150.8125 63.5705680847168
150.9727 878.617126464844
152.1100 1333.93969726563
152.2793 87.1956939697266
152.6800 95.6902847290039
152.8475 209.592102050781
153.0100 296.063934326172
153.1000 90.8992462158203
153.9700 301.983367919922
154.0796 1504.85534667969
155.0231 7725.4931640625
156.0579 11046.7900390625
157.0660 21238.83203125
158.0598 36245.6015625
159.0029 16370.166015625
160.0495 4993.041015625
161.0352 12006.806640625
161.9300 124.129051208496
162.0461 1524.5390625
162.9900 1760.10034179688
163.8100 85.8730010986328
163.9693 253.82243347168
164.1183 98.8856811523438
165.0269 1240.19775390625
165.6946 7.36042213439941
165.9157 101.269523620605
166.0210 364.210632324219
166.1200 48.7920303344727
167.0100 2570.84887695313
168.0800 2894.53955078125
169.0671 5184.30517578125
169.9082 18.6221466064453
170.0497 5060.84765625
171.0600 34428.74609375
172.0600 11591.7880859375
173.0699 5760.2568359375
174.0700 108806.5546875
175.0699 69196.203125
176.0700 9439.4794921875
177.0396 81213.984375
178.0499 9148.869140625
178.9669 823.71484375
179.0677 185.160522460938
179.7600 32.6429557800293
179.9870 363.581634521484
180.8700 137.775833129883
180.9864 730.410705566406
181.1000 235.614624023438
181.9730 553.238708496094
182.1000 515.390502929688
182.9706 34.2974243164063
183.1000 3550.41870117188
184.0700 5349.19189453125
185.0888 28051.953125
186.0700 10275.33984375
187.0696 4442.42041015625
188.0600 1817.51989746094
189.0319 1370.80297851563
189.8719 88.9920654296875
190.0200 315.074462890625
190.1800 48.0260467529297
190.8191 328.052001953125
190.9747 388.234008789063
191.8850 109.517456054688
192.0500 339.576538085938
192.9645 822.005615234375
193.8599 66.7134704589844
193.9775 208.530242919922
194.1100 27.1133995056152
194.9839 1292.32800292969
196.0409 1062.8310546875
196.9812 1381.93298339844
197.9597 400.129272460938
198.0600 1094.97729492188
199.0700 9979.412109375
200.0682 5637.37255859375
201.0273 4672.28271484375
201.9979 1094.09191894531
202.1118 518.526000976563
203.0600 7344.6884765625
204.0680 1802.77319335938
205.0797 4948.2109375
206.1056 1558.56298828125
206.1900 152.359222412109
207.0016 601.776733398438
207.1300 830.283081054688
207.9279 78.2544708251953
208.0500 373.64990234375
209.0248 565.338256835938
209.9879 282.693786621094
210.0800 1056.11437988281
210.2169 100.748687744141
211.0137 5488.25634765625
212.0800 4116.373046875
213.1100 114236.5234375
214.1087 19655.2265625
215.0076 13909.232421875
216.0343 6275.32275390625
217.0082 2211.955078125
217.9982 293.345611572266
218.1076 292.133117675781
218.9433 2896.64892578125
220.0891 1855.45520019531
220.9400 233.479858398438
221.0400 613.856323242188
221.5500 24.4130268096924
221.8500 27.7871494293213
222.0032 323.435791015625
222.2300 32.8893203735352
222.8206 150.656616210938
222.9465 379.26611328125
223.7709 3.76365566253662
224.0512 262.915649414063
224.1900 64.2894439697266
224.7183 33.7583312988281
224.9286 271.7587890625
225.1010 247.734298706055
225.2500 88.6754608154297
225.8800 257.581726074219
226.0300 294.24462890625
226.1300 330.392059326172
226.3200 49.8507766723633
226.9198 210.680541992188
227.0500 729.101135253906
227.2500 115.892196655273
228.1001 11472.1787109375
229.0900 4981.24609375
230.0373 422.462707519531
230.1600 1894.84313964844
231.1091 18957.6640625
232.1000 5519.8154296875
233.1195 1534717.625
234.1094 235104.984375
235.1200 20648.74609375
235.9865 273.45849609375
236.1200 993.75439453125
236.9865 5616.94970703125
237.9812 1308.91101074219
238.8720 197.223388671875
238.9800 770.182312011719
239.6900 8.85843849182129
239.9249 215.904861450195
240.1200 223.585235595703
240.8850 231.644714355469
241.0076 626.683532714844
242.0061 276.164794921875
242.1500 563.640258789063
242.7778 111.404113769531
242.9200 269.856689453125
243.0834 88.3422317504883
243.2500 36.0575332641602
243.9708 622.680114746094
244.1100 497.019439697266
244.2200 34.0798835754395
245.0128 597.340881347656
245.1600 280.691802978516
246.1199 6714.345703125
247.0700 367.531494140625
247.1500 8696.3212890625
248.1200 4534.015625
249.1299 165809.9375
250.1400 25796.322265625
251.0800 1624.78979492188
251.1600 825.814086914063
251.8600 45.3220901489258
252.0500 184.633514404297
252.8100 168.518997192383
253.0414 104.780227661133
253.6300 16.2281188964844
253.7500 68.2372894287109
253.9626 71.3301773071289
254.1400 96.1948699951172
254.3500 49.4299812316895
254.8685 103.465347290039
255.0597 204.785491943359
255.2400 26.7987403869629
255.9800 203.871200561523
256.1200 754.175598144531
256.9428 236.373565673828
257.0448 281.055999755859
257.4300 50.5356750488281
257.9500 190.902801513672
258.1300 62.8965950012207
258.8500 37.1650466918945
259.0600 336.967102050781
259.1820 34.7176818847656
259.9670 180.426498413086
260.0993 971.974792480469
261.1600 11949.6513671875
262.1700 2562.65356445313
263.0682 651.506530761719
263.6600 20.0301284790039
263.9000 35.0521965026855
264.6100 17.5407657623291
264.7600 77.3695831298828
265.0700 182.302597045898
265.2000 21.0254001617432
266.0500 59.7366714477539
266.1300 48.0178451538086
266.8337 13.7512493133545
267.0128 153.236999511719
267.1500 26.2375183105469
267.9300 24.0843181610107
268.0734 153.937454223633
268.1800 23.0954475402832
268.9994 387.788269042969
269.1000 42.9359970092773
269.7800 25.1353340148926
269.9919 17.8804588317871
270.1200 903.7529296875
270.2500 198.498596191406
270.9003 28.4950256347656
271.0343 538.291625976563
271.1800 143.472396850586
271.8900 99.0485534667969
272.1100 1271.16943359375
272.1900 192.086013793945
272.8934 138.177703857422
273.0043 902.556640625
274.1300 2796.67553710938
274.9686 663.825561523438
275.1000 783.466918945313
275.7700 57.2884941101074
275.9128 30.6964416503906
276.0172 157.743881225586
276.1800 143.918609619141
276.9265 321.518890380859
277.0600 118.084190368652
277.8033 14.7800712585449
277.9560 210.574295043945
278.1073 307.542358398438
278.8440 215.520721435547
278.9804 83.8150787353516
279.1600 17.4075927734375
279.9200 20.6009101867676
280.0700 52.914421081543
280.8748 181.806747436523
281.0287 83.968994140625
281.2700 35.1796493530273
281.9400 83.9971923828125
282.1131 295.576507568359
282.8800 41.5303382873535
283.0450 211.138641357422
283.9900 30.6626052856445
284.1606 3043.75927734375
285.1000 1511.333984375
286.1381 2433.51220703125
287.0978 911.53564453125
287.2800 57.727710723877
288.1468 11482.1025390625
289.1000 19603.083984375
290.1000 3884.52685546875
291.0424 813.667541503906
291.1600 115.083656311035
291.8000 44.1407585144043
291.9523 120.592926025391
292.0700 61.2963981628418
292.2000 18.1665668487549
292.9695 2068.97875976563
293.9478 217.509735107422
294.0600 279.00048828125
294.8473 149.771453857422
294.9679 165.089477539063
295.0600 189.130249023438
295.6816 5.64418983459473
296.0300 103.895278930664
296.1700 139.83528137207
296.9548 600.549682617188
297.6700 22.4662284851074
297.8500 195.986846923828
297.9708 63.3166542053223
298.7200 105.606727600098
298.8952 6.08882904052734
299.0138 115.248611450195
299.1548 66.8374481201172
299.8200 119.573631286621
300.0100 127.709327697754
300.1900 278.854583740234
300.4300 34.6631011962891
300.7629 64.22314453125
300.9462 125.070175170898
301.0993 318.059692382813
302.0500 153.238952636719
302.1600 3024.75927734375
303.1590 4229.28759765625
304.2000 694256.4375
305.1900 134480.171875
306.1800 14094.224609375
306.9867 539.842468261719
307.1800 841.660949707031
307.8609 43.2309799194336
308.1100 171.757369995117
308.8400 15.7865877151489
309.0600 54.861011505127
309.3500 20.8718910217285
310.0800 23.3470287322998
310.5600 15.6477794647217
310.8600 50.6389579772949
310.9680 101.956115722656
311.1400 101.855979919434
311.9500 23.6942081451416
312.1240 132.223892211914
312.8200 47.6997871398926
313.0500 51.5092086791992
313.1500 54.7771492004395
314.0100 77.205078125
314.6200 18.5667266845703
314.7200 86.7655181884766
314.8977 57.730525970459
315.0573 261.496520996094
316.1399 5955.12158203125
317.0807 758.384338378906
317.1600 713.085327148438
318.0900 155.950927734375
318.2300 165.668869018555
318.9600 31.7053737640381
319.0900 250.400344848633
319.2300 28.0350246429443
320.1394 13807.896484375
321.1500 13618.103515625
321.9300 81.6256942749023
322.0800 316.566711425781
322.1700 2190.24560546875
323.1300 255.1728515625
324.1200 40.7357711791992
325.0800 55.692024230957
325.3200 19.8558807373047
326.2500 16.3336143493652
326.6600 60.9548110961914
327.0300 38.5609092712402
328.0200 37.4754104614258
328.1700 92.3740997314453
328.6700 24.2396812438965
328.9203 34.9845962524414
329.1000 151.084075927734
329.2600 67.9902725219727
329.8800 20.9433097839355
330.0500 218.075164794922
330.1900 995.362182617188
331.1500 7297.5078125
332.1500 3423.935546875
333.0305 351.865447998047
333.1100 345.06005859375
333.7500 18.9184761047363
334.0900 533.453796386719
334.2600 277.469940185547
334.9400 224.598114013672
335.3500 18.4264850616455
336.0300 19.9896831512451
336.8200 44.6492156982422
336.9376 26.2350082397461
339.0400 20.887035369873
340.8900 18.4045810699463
342.1400 426.231781005859
343.0200 126.391700744629
343.1800 683.42138671875
343.9410 67.7601165771484
344.2900 30.0212898254395
344.9671 25.0843963623047
345.1440 344.889709472656
345.2800 96.410888671875
346.0200 331.897888183594
346.1682 370.526458740234
347.0900 293.817321777344
347.2900 21.7950210571289
347.9200 28.0547542572021
348.1300 1217.41369628906
348.2100 554.337097167969
348.3700 22.6231937408447
348.8521 38.2755508422852
348.9814 135.135925292969
349.1600 373.733703613281
349.9800 146.840728759766
350.1100 67.3701934814453
350.7400 33.8146743774414
350.8900 67.5029144287109
350.9840 23.6271438598633
352.0900 50.0724601745605
352.7300 77.5328979492188
352.8462 7.98402786254883
352.9729 64.4940185546875
353.1300 32.6676979064941
354.9326 25.8793106079102
355.0800 20.533203125
356.0700 51.2538146972656
356.2100 39.1788139343262
356.8200 26.8904056549072
357.1300 33.2341804504395
358.9500 93.6184539794922
359.1500 17.22585105896
359.9400 24.915210723877
360.1500 21.5982418060303
360.8600 42.1543045043945
360.9900 47.1293258666992
361.1700 48.939338684082
362.0100 47.2904434204102
362.1400 1445.08569335938
363.2200 78522.9765625
364.2100 17797.37109375
365.1300 302.669281005859
365.2100 2246.76489257813
365.9900 24.8621711730957
366.1000 25.8401222229004
366.1900 185.927520751953
366.8386 28.7331390380859
367.0500 114.976623535156
367.2100 16.017017364502
368.8800 19.4054660797119
369.0800 23.2750244140625
370.9000 32.1437606811523
371.0577 105.546890258789
373.8600 15.2477016448975
376.2600 18.1799736022949
377.2400 41.2256355285645
378.3500 15.2626113891602
384.7700 18.2554168701172
387.1300 26.6320610046387
389.8200 17.2382392883301
394.5900 17.3055229187012
400.9700 53.634651184082
401.1682 10.9589414596558
403.0800 26.0288696289063
404.7800 18.0716648101807
404.8900 18.838342666626
405.0200 44.2993392944336
408.6500 22.1616401672363
408.9500 21.4140472412109
409.9741 7.78014755249023
410.2542 3.13798141479492
427.2200 16.061351776123
483.0600 21.6712226867676
