#"+EI Scan (rt: 3.862-3.932 min, 13 scans) R1M1.D  Subtract "
#Point,X(Thompsons),Y(Counts)
40.0638 625.628295898438
40.1400 1155.50317382813
41.0700 43232.5234375
42.0974 3440.12353515625
43.0800 88881.3125
44.0412 3251.26049804688
44.9736 236.632705688477
45.1100 88.6165924072266
45.9377 56.6078453063965
47.0676 157.421127319336
47.9900 11.6489400863647
48.1500 15.2203226089478
48.9176 87.3229827880859
49.0800 162.729095458984
50.0307 2929.12573242188
51.0380 9909.908203125
52.0499 8021.3037109375
53.0358 4643.35693359375
53.9529 213.163101196289
54.1209 644.831787109375
54.2700 41.6824798583984
55.0576 14581.1630859375
56.0305 874.54150390625
57.0061 516.038818359375
57.1100 218.942535400391
57.8097 11.5905895233154
57.9732 64.5371704101563
58.0970 36.2377624511719
58.2000 42.4439353942871
59.0300 2854.1142578125
59.9561 123.390579223633
60.0773 98.7116241455078
60.9706 336.978332519531
61.0609 227.535064697266
62.0102 2530.91381835938
62.0400 1587.79052734375
63.0286 12057.154296875
63.9133 352.367248535156
64.0300 3810.02026367188
65.0299 22293.595703125
65.8600 30.3427906036377
66.0283 2108.04516601563
67.0309 1735.78210449219
67.9797 343.069671630859
68.0900 159.931411743164
69.0563 3599.08520507813
70.0237 547.292724609375
70.1700 82.2355117797852
70.8222 33.1515655517578
71.0697 3146.40502929688
71.8200 18.6915416717529
71.9269 2.80307388305664
72.1052 322.091491699219
73.0421 2134.35278320313
74.0095 2317.75463867188
75.0190 9188.240234375
76.0293 11813.1337890625
77.0366 43628.80078125
78.0475 66501.328125
79.0349 7058.36962890625
79.8751 182.25895690918
80.0239 382.7900390625
80.9957 1319.14404296875
81.8200 222.106781005859
81.9702 64.4943389892578
82.1411 245.754623413086
82.2900 60.7428932189941
82.6800 161.956527709961
83.0682 236.295928955078
83.2100 144.955627441406
83.3700 411.807739257813
83.6100 274.561950683594
83.9342 19.8198795318604
84.1000 43.5611915588379
85.0700 464.261596679688
85.9400 270.335632324219
86.0300 724.179382324219
86.8944 253.283889770508
87.0108 3355.2841796875
88.0300 12083.1181640625
89.0401 62730.99609375
90.0501 14772.9580078125
91.0497 73343.890625
92.0295 4690.52685546875
92.0700 2448.74487304688
93.0036 761.328430175781
93.7700 105.254936218262
94.0617 284.870697021484
94.2600 235.6962890625
94.9590 317.712219238281
95.1038 856.658142089844
95.2600 220.917266845703
95.6500 245.83366394043
95.8200 344.210510253906
96.2353 151.883117675781
96.3700 382.153991699219
96.7024 139.864990234375
96.8556 150.981964111328
97.1217 168.351501464844
97.9000 177.50862121582
98.0250 205.453811645508
98.9884 451.017700195313
99.1465 167.07551574707
99.9194 301.255432128906
100.0683 825.965209960938
101.0400 19413.5625
102.0400 56764.37109375
103.0299 20463.677734375
103.9487 586.565063476563
104.0509 2529.8271484375
105.0250 4515.1083984375
106.0400 8325.3662109375
107.0091 2188.9150390625
107.1350 53.7336883544922
107.6400 65.2774200439453
107.9761 22.3160781860352
108.9600 4538.40771484375
109.7900 114.668998718262
109.9522 132.881378173828
110.1436 199.717559814453
110.6845 18.5124740600586
110.8900 195.712661743164
111.0053 547.749267578125
111.7000 53.5114822387695
111.8300 164.380645751953
112.0000 123.628135681152
112.1300 38.407154083252
112.8591 41.8564453125
112.9960 1389.60949707031
113.0797 802.893676757813
114.0398 17256.474609375
115.0398 64368.234375
116.0400 145813.3125
117.0270 19529.798828125
118.0262 582.612976074219
118.2396 2205.40576171875
118.4700 1103.56762695313
118.5908 1797.24609375
118.8098 179.35595703125
119.0695 55.3129272460938
119.9768 67.3220062255859
120.1697 2131.45825195313
120.2900 77.6474914550781
121.0498 95255.6875
122.0501 9502.2646484375
122.9884 602.398559570313
123.1382 702.033569335938
123.7200 244.738204956055
123.9930 57.99853515625
124.1200 32.931510925293
124.2400 56.5350761413574
124.4300 253.611755371094
124.6417 2310.35498046875
124.8160 258.897369384766
125.4900 1451.62902832031
125.5902 7667.2724609375
127.0496 5881.6767578125
128.0397 46879.48828125
129.0397 101808.265625
130.0500 48157.7109375
131.0402 6787.85546875
131.9400 349.038909912109
132.0400 779.473266601563
132.1560 47.9248733520508
132.9838 1400.33666992188
133.8100 23.8787574768066
134.0704 684.788208007813
135.0194 2333.5830078125
135.9539 335.647155761719
136.0500 97.3418884277344
137.0039 11819.806640625
137.9954 854.02294921875
138.0700 855.801879882813
139.1000 5697.85888671875
139.7996 2868.75952148438
140.0013 2600.18823242188
141.0300 5423.9755859375
142.0600 6520.39208984375
143.0397 55535.05859375
144.0400 458354.71875
145.0302 47370.55078125
145.9898 2502.43994140625
146.0900 912.963806152344
146.8003 103.423965454102
146.9630 225.20751953125
147.1414 139.63134765625
147.8900 91.873161315918
148.0189 1313.44616699219
148.9210 421.876586914063
149.0570 102.02946472168
149.8600 89.4698028564453
150.0113 1375.42456054688
150.9765 1063.25317382813
151.0500 2219.55688476563
152.0597 3900.05151367188
153.0581 2274.82763671875
154.0498 8462.34375
155.0179 4003.76708984375
156.0769 11292.2412109375
157.0377 17425.5546875
158.0489 15244.31640625
158.9826 5460.99365234375
159.9571 578.136108398438
160.9687 799.954162597656
161.8817 6.69021797180176
161.9700 409.513671875
162.1269 119.199035644531
163.0052 3644.96655273438
164.0095 1833.11572265625
164.0600 1745.08581542969
165.0204 2740.42822265625
165.0600 5103.310546875
166.0300 2011.61730957031
166.0899 1516.75744628906
166.3900 40.6049461364746
167.0495 3188.953125
167.1400 2498.38818359375
167.5400 82.9174652099609
167.7290 1648.53100585938
167.8396 432.065979003906
168.0104 2665.85034179688
168.9373 180.131851196289
169.0608 1207.60815429688
170.0601 16555.783203125
171.0219 3622.498046875
171.9249 2.04233932495117
172.0507 1371.36938476563
172.9500 77.954475402832
173.0600 258.198303222656
173.8900 79.7227401733398
174.0308 528.538452148438
174.8323 23.7629508972168
175.0600 931.283508300781
176.0200 1786.16467285156
176.0802 2504.74145507813
176.9400 604.537658691406
177.0481 2502.82739257813
177.9700 150.829376220703
178.0500 4502.5322265625
179.0212 1931.60180664063
179.9595 437.166809082031
180.0600 1975.41162109375
180.9274 602.647766113281
181.0335 571.2880859375
182.0200 1113.85070800781
182.9276 379.638916015625
183.0456 374.674224853516
184.0600 6231.1337890625
185.0400 2839.7255859375
186.0282 780.02587890625
186.1201 2489.71899414063
187.0432 2144.84716796875
187.9600 233.37956237793
188.0600 684.222412109375
189.0156 2285.60327148438
190.0303 3637.35205078125
190.1700 69.6107711791992
191.0434 7652.08837890625
192.0595 8303.984375
193.0600 5080.05712890625
193.9630 230.593154907227
194.0712 2295.58666992188
195.0100 1520.34838867188
195.9238 177.220062255859
196.0752 389.276458740234
196.2000 53.4183807373047
196.9774 390.864868164063
198.0600 1761.44982910156
198.1400 425.845336914063
198.9804 699.42041015625
200.0764 1249.72961425781
200.9138 317.102233886719
201.0119 734.665344238281
201.9600 756.12060546875
202.0506 988.510925292969
203.0292 3834.45751953125
204.0700 15607.5107421875
205.0700 8859.8349609375
205.8612 67.8032913208008
206.0791 3939.98681640625
206.9538 437.258697509766
207.0510 1346.5615234375
208.0458 771.306579589844
208.1200 1026.96203613281
208.8839 85.8556060791016
209.1088 738.857116699219
209.2500 85.5871887207031
209.3600 38.6562652587891
209.7100 46.0673446655273
209.8721 342.1845703125
210.0227 262.357574462891
210.1300 523.378845214844
211.0062 3221.005859375
212.0987 11637.7958984375
213.1166 13002.1484375
214.1300 1671094.5
215.1300 284672.78125
216.1000 27660.822265625
217.0441 6611.76611328125
218.0697 4146.5712890625
218.9626 2903.70556640625
220.0798 6998.4609375
220.9141 135.130218505859
221.0281 3503.75341796875
221.8931 23.1084098815918
222.0800 4973.6181640625
222.9829 1022.50354003906
223.6900 12.6318454742432
223.8904 46.7284889221191
224.1135 149.126159667969
224.3300 26.8322277069092
224.8500 63.642463684082
225.0058 153.74821472168
225.8563 23.7055892944336
225.9500 33.5923385620117
226.1100 69.7239837646484
226.7939 126.768135070801
227.0700 177.069274902344
227.8991 218.158187866211
228.1061 499.201080322266
228.9296 26.3515930175781
229.0492 598.786743164063
230.0710 1345.49340820313
230.9906 299.559692382813
231.1075 529.178039550781
232.0493 2138.85327148438
232.1600 102.526527404785
233.0158 5709.341796875
234.0292 3688.8564453125
235.0445 2736.44165039063
236.1200 8426.1201171875
236.9787 4777.1630859375
237.9659 723.239135742188
238.8500 53.1068878173828
238.9587 274.449951171875
239.7900 105.444664001465
240.0847 72.0297470092773
240.9188 633.662109375
241.7955 14.2506637573242
241.9516 128.045104980469
242.0700 136.985382080078
242.8339 10.1984252929688
242.9800 262.520812988281
244.0300 148.189361572266
244.1400 211.512786865234
244.9557 307.913879394531
245.0949 115.390724182129
245.8800 53.5579681396484
246.0497 1927.50927734375
246.9239 60.8645820617676
247.0600 1038.10485839844
247.8200 59.3315849304199
248.1100 2322.9453125
249.0200 1208.15747070313
249.1204 498.299652099609
249.9100 43.9543685913086
249.9900 337.843414306641
250.0900 929.645446777344
250.7918 42.413990020752
250.9614 207.153839111328
251.1600 73.2466888427734
251.3100 29.8451042175293
251.8100 15.0053930282593
252.0100 31.3958320617676
252.7000 29.3206005096436
252.8716 44.0415115356445
253.6300 17.4042682647705
253.8900 62.7608375549316
254.0190 63.4012603759766
254.6400 14.7723474502563
254.9219 176.021408081055
255.8000 11.8573617935181
256.0900 56.5918502807617
256.2100 16.1462535858154
256.8878 43.8545684814453
257.0100 125.136474609375
257.1300 38.0951805114746
257.9000 79.1355743408203
258.0200 85.625846862793
258.4600 30.0627174377441
258.6700 14.3118934631348
258.8885 44.8068466186523
259.0200 98.554931640625
259.1518 48.0504913330078
259.8700 106.65007019043
260.0300 472.531372070313
260.1500 265.754974365234
260.8428 36.6879730224609
260.9843 263.699890136719
261.1400 199.476409912109
262.0500 1621.30639648438
262.1405 1261.28393554688
263.0200 881.474975585938
263.1200 509.702789306641
264.1100 4796.5009765625
265.0089 337.640625
265.1300 794.343444824219
265.3800 40.9232177734375
265.9700 172.30354309082
266.1200 222.595245361328
266.9900 42.9038925170898
267.1036 190.775756835938
267.8000 14.5093555450439
267.9600 33.7897529602051
268.7282 53.4403495788574
269.0367 182.707427978516
269.9664 10.5317306518555
270.1000 98.5328826904297
270.9636 237.103240966797
271.0700 77.1543121337891
271.6800 12.9878797531128
271.9611 166.631118774414
272.9139 201.984558105469
273.0216 90.6542816162109
273.8777 39.0044403076172
274.0300 396.967498779297
274.2800 33.5603790283203
274.8723 254.889068603516
274.9703 216.794219970703
276.0390 323.849304199219
276.1500 374.441070556641
277.0100 543.828857421875
277.9799 175.272430419922
278.1100 5275.1142578125
279.0288 1132.68395996094
279.1300 259.669372558594
279.8600 55.0216636657715
280.0100 83.8726272583008
280.1600 104.020523071289
280.8650 118.966285705566
281.0294 35.0683708190918
281.9250 44.445198059082
282.2600 28.5994472503662
282.7300 18.2600746154785
283.0100 96.7923049926758
284.0200 17.7737808227539
284.7900 52.3310165405273
284.9355 297.158447265625
285.9800 100.469360351563
286.0859 142.322113037109
286.2600 19.2259292602539
286.9800 228.069717407227
287.2400 24.4702339172363
287.8000 25.251579284668
287.9500 241.709381103516
288.2000 95.5274124145508
288.8700 153.415145874023
288.9711 482.488403320313
289.9900 323.623474121094
290.1000 392.453552246094
290.9860 145.559478759766
291.1000 317.865600585938
292.0209 399.732025146484
292.1400 333.740447998047
292.9740 1188.9736328125
293.9206 58.9373474121094
294.0313 161.676971435547
294.8300 92.6127319335938
294.9636 234.713836669922
295.9000 117.79069519043
296.8224 179.938919067383
296.9400 13.44921875
297.6600 69.9288482666016
297.8121 19.3894424438477
297.9210 29.2684173583984
298.9118 126.435264587402
299.1477 3.96674728393555
300.6500 27.9148254394531
300.8771 63.1315879821777
301.0457 14.5896263122559
301.9100 110.904373168945
302.0700 100.417976379395
302.8500 27.199821472168
302.9786 117.590324401855
303.0951 87.1996307373047
303.7800 20.056568145752
304.0126 112.991554260254
304.1000 190.065048217773
304.2100 75.2741317749023
304.3400 53.5487442016602
304.8300 54.6539726257324
304.9800 82.419319152832
305.1200 61.177116394043
305.2900 14.961009979248
305.9400 51.6531982421875
306.1000 535.246398925781
306.2100 1235.46411132813
306.9401 104.949211120605
307.1224 326.433959960938
307.2900 87.0326309204102
307.9804 4.69815921783447
308.0700 131.089141845703
308.2400 30.4645366668701
308.8700 33.8963966369629
310.5800 15.8216142654419
310.9400 138.644348144531
311.9000 34.1352958679199
312.9400 15.372727394104
314.7866 25.5478858947754
314.9200 201.243255615234
315.7700 18.2447090148926
315.8900 12.7312536239624
315.9800 63.0566368103027
316.1500 181.199523925781
316.5400 13.6239919662476
316.9015 36.9733657836914
317.0607 490.463409423828
317.1800 366.506622314453
317.9000 29.7056503295898
318.0100 188.114822387695
318.1800 455.250122070313
319.0660 175.833511352539
319.1700 3787.39721679688
320.1200 984.692077636719
320.2400 243.328430175781
320.9800 17.8700199127197
321.0900 204.329254150391
321.2200 87.4227752685547
322.1800 12.5698862075806
323.0500 40.130744934082
324.8900 17.8787078857422
325.0900 17.3781509399414
326.9600 36.1654319763184
328.3000 11.9238910675049
328.9500 57.1731948852539
329.1042 11.35618019104
330.0400 58.3457298278809
330.6300 13.5853204727173
330.7900 44.217155456543
330.9300 102.129867553711
331.0700 77.0644912719727
332.0300 39.2836227416992
332.1600 27.4171943664551
332.3200 12.1412010192871
332.7981 1.80241012573242
332.9200 21.6250381469727
333.0600 460.128936767578
333.1900 150.036315917969
333.3400 56.5853309631348
334.0000 105.907745361328
334.1400 795.983703613281
335.1900 34729.1171875
336.0900 989.223937988281
336.2000 7803.900390625
336.9458 28.0769786834717
337.1200 355.637878417969
337.2100 731.8974609375
338.1200 27.6000232696533
338.2800 47.4242134094238
339.0800 24.2296371459961
339.2300 24.3439502716064
340.8500 14.7372789382935
343.0800 13.1848211288452
344.8400 67.9587173461914
345.0226 49.3891906738281
345.1300 42.434944152832
346.0000 14.1348714828491
346.8300 33.1178359985352
346.9317 2.78165054321289
347.0700 112.558685302734
347.2000 26.9680099487305
347.8600 32.4955596923828
348.0700 12.3480110168457
348.7100 47.6780815124512
348.8389 142.163543701172
348.9970 30.6601257324219
349.2100 58.3951263427734
349.9900 72.216423034668
350.2500 67.4833450317383
350.7849 46.123706817627
350.9000 13.6709089279175
351.0629 79.1365661621094
352.7000 29.9080009460449
352.8474 31.9628162384033
353.0159 57.7682762145996
353.1700 18.1378231048584
353.8800 12.7700805664063
354.8800 44.796142578125
356.8400 25.6534805297852
357.0200 32.0509605407715
359.0100 43.5711097717285
362.7200 27.5593605041504
362.9000 45.6594009399414
363.0100 20.5775680541992
366.7800 37.060417175293
366.9084 118.280265808105
367.9800 20.4269676208496
368.1100 31.0886707305908
369.1700 13.7875862121582
370.7000 40.1767578125
370.9900 14.984658241272
371.2300 40.7766571044922
377.0200 34.5209007263184
386.9300 11.863712310791
389.2400 12.1028728485107
400.8900 14.4180564880371
408.9900 17.4247703552246
411.0000 15.4152278900146
412.7100 30.9235973358154
440.8500 11.5452737808228
450.9200 13.3285503387451
464.8300 14.2156171798706
