#"+EI Scan (rt: 3.850-3.914 min, 12 scans) R8M1.D  Subtract "
#Point,X(Thompsons),Y(Counts)
40.0900 1605.10437011719
41.0696 45205.19140625
42.1098 3932.97802734375
43.0798 92182.546875
44.0139 1293.33081054688
44.0700 2174.7333984375
44.9762 319.250610351563
46.9407 37.4005279541016
47.0500 72.2594451904297
48.1500 14.9819822311401
48.9900 222.179397583008
50.0200 3034.95678710938
51.0354 10524.9501953125
52.0500 8973.0634765625
53.0474 5092.39013671875
53.9466 266.29248046875
54.0586 581.547668457031
55.0673 15660.5048828125
55.9695 259.583862304688
56.0600 492.858947753906
56.9600 409.112670898438
57.0352 506.917358398438
58.1139 249.924377441406
59.0300 3919.29052734375
60.0275 359.826629638672
60.8000 36.1979637145996
60.9482 218.936370849609
61.0388 351.481475830078
62.0278 4238.6201171875
63.0300 12537.2958984375
64.0400 4678.0498046875
65.0399 23475.359375
65.9686 518.53857421875
66.0415 1560.82727050781
67.0588 1945.50048828125
67.7800 42.2804870605469
67.9903 348.888305664063
69.0500 4014.0341796875
69.8956 63.3723068237305
70.0637 488.143432617188
70.2800 12.7556352615356
71.0589 3211.07934570313
71.8400 52.880126953125
71.9463 75.9823989868164
72.1246 166.342758178711
73.0400 3134.6162109375
73.9810 1068.13671875
74.0524 1402.79907226563
75.0267 9254.2119140625
76.0083 4270.08544921875
76.0603 7784.9794921875
77.0371 47146.91015625
78.0485 69915.9140625
79.0362 7037.3583984375
79.8717 34.6385307312012
80.0000 267.752410888672
80.0777 237.734573364258
80.9960 1643.68798828125
81.8050 0.318796157836914
81.9340 137.922454833984
82.0432 130.228485107422
82.1500 159.891555786133
82.3300 87.8974304199219
82.4800 68.2984085083008
82.6925 128.972183227539
83.0436 148.400955200195
83.3200 424.849487304688
83.4400 112.150573730469
83.6000 233.075454711914
83.7848 68.3046264648438
83.9583 93.7671890258789
84.1300 36.539005279541
84.9789 96.4761047363281
85.0600 236.554016113281
86.0000 784.741943359375
86.0900 130.255187988281
86.3200 18.1518611907959
87.0189 3755.80859375
87.9000 250.401718139648
88.0300 12120.1435546875
89.0397 63696.69140625
90.0501 15433.1123046875
91.0598 77587.65625
92.0299 7288.08984375
92.9621 204.415069580078
93.0848 455.023010253906
93.7000 64.1066970825195
93.8264 18.4506454467773
93.9507 169.319458007813
94.0910 15.6115951538086
94.3000 68.2516174316406
94.4400 122.555992126465
94.8764 242.164855957031
95.0132 131.539566040039
95.1500 557.610778808594
95.3400 731.486511230469
95.6000 271.795501708984
95.8402 79.6665496826172
95.9900 0.341194152832031
96.1874 481.674652099609
96.3400 55.1822929382324
96.6800 107.614028930664
96.8727 492.994995117188
97.2624 48.0469284057617
97.7000 45.5693550109863
97.9003 92.5613403320313
98.0500 499.628387451172
98.8800 212.83154296875
99.0000 446.134887695313
99.1176 91.9413909912109
99.4000 15.2436218261719
99.9600 286.519134521484
100.0600 891.500793457031
100.2000 108.470390319824
101.0399 20143.771484375
102.0400 56855.8203125
103.0198 21015.41015625
104.0393 3074.0048828125
105.0286 4587.0947265625
106.0199 8967.80859375
106.1001 128.874847412109
107.0252 1653.38793945313
107.1100 521.259460449219
107.7100 123.792091369629
108.2900 336.664337158203
108.6300 359.962432861328
108.8700 1583.05603027344
109.0051 788.34521484375
109.7400 92.0050888061523
109.8397 41.2287216186523
109.9882 283.300598144531
110.1108 67.9550323486328
110.6900 39.7543106079102
110.8980 179.672790527344
111.0418 451.254608154297
111.5800 72.0757827758789
111.7100 59.5758399963379
111.9800 279.354278564453
112.1000 35.6569175720215
112.3000 60.8395805358887
113.0192 2721.06567382813
114.0400 17927.40234375
115.0299 65211.8359375
116.0400 144986.171875
117.0374 18877.646484375
117.9697 116.419372558594
118.2000 2166.78393554688
118.4500 1698.17175292969
118.6500 1931.93005371094
118.8144 18.2541656494141
120.1596 1898.8486328125
121.0600 103272.3359375
122.0599 10532.3203125
122.9963 1075.50341796875
123.0700 625.554260253906
123.6800 189.07536315918
123.8082 41.6027336120605
124.3100 78.5995254516602
124.6100 1506.43688964844
124.7514 1371.30358886719
125.5700 9525.07421875
125.7000 260.284210205078
127.0400 6445.25830078125
128.0399 46743.00390625
129.0500 105863.2265625
130.0500 49194.91796875
131.0398 6908.5224609375
131.9785 607.689575195313
132.0795 665.663879394531
133.0410 1924.53173828125
133.8536 11.6302452087402
133.9909 519.245300292969
134.1000 47.641658782959
135.0090 2343.31494140625
135.9669 218.232711791992
136.0843 314.554901123047
137.0100 13853.9375
138.0069 2052.6337890625
139.0700 7121.05419921875
139.7000 525.739562988281
139.8108 1356.02294921875
139.9613 3574.47412109375
141.0094 4294.19775390625
142.0696 6438.029296875
143.0500 57435.00390625
144.0400 456835.0625
145.0400 47539.25
146.0200 3537.84545898438
146.7000 23.1350917816162
146.8858 39.0878677368164
147.0183 384.176147460938
148.0289 1770.18481445313
148.8886 113.582260131836
148.9853 383.456237792969
149.1439 72.3689270019531
149.8698 33.7025604248047
150.0285 1429.9365234375
151.0236 3538.4853515625
151.9004 34.8301849365234
152.0307 3769.20776367188
153.0435 1633.90112304688
153.1300 442.662994384766
154.0501 9276.5234375
155.0215 5196.94873046875
156.0485 10800.8564453125
157.0483 18229.7421875
158.0398 14823.8798828125
158.9800 6252.5439453125
159.9437 832.826171875
160.9846 1046.14636230469
161.8900 246.917984008789
162.0678 379.973266601563
162.9931 3644.14111328125
163.9610 226.118682861328
164.0703 3393.92333984375
164.9328 117.442321777344
165.0500 8168.64404296875
165.9251 309.741149902344
166.0600 2997.98168945313
167.0891 5672.541015625
167.7000 1951.54895019531
167.8006 2039.1630859375
167.9896 1404.61242675781
168.6800 22.1680164337158
168.8357 65.0663452148438
168.9585 36.3494262695313
169.0899 1454.99938964844
170.0700 17620.865234375
170.9616 476.152801513672
171.0700 3045.2333984375
172.0200 1152.96862792969
172.1000 362.070831298828
172.7550 33.6438980102539
172.9626 220.022979736328
173.1500 109.879890441895
173.8800 16.9287052154541
174.0300 506.839447021484
174.7200 20.2249240875244
174.9189 345.704254150391
175.0913 327.327514648438
176.0400 4387.2509765625
177.0500 3031.27856445313
178.0698 4776.9501953125
179.0483 1967.13818359375
179.9216 165.356552124023
180.0595 2253.3896484375
180.9910 1336.43823242188
181.9990 1013.20465087891
182.1238 172.808746337891
182.9100 306.860137939453
183.0369 408.812408447266
183.1400 67.9149017333984
184.0596 6506.908203125
185.0400 2828.1376953125
186.1000 3456.5986328125
187.0242 1902.35131835938
187.9491 258.656707763672
188.0500 747.640686035156
189.0300 2697.06396484375
190.0200 1884.45666503906
190.0800 1786.34631347656
191.0499 8218.45703125
192.0692 8220.052734375
193.0392 5432.47314453125
194.0356 1976.103515625
194.1400 334.926788330078
194.8300 120.676719665527
194.9688 1046.95581054688
195.7373 4.62491989135742
196.0100 647.0673828125
196.0900 180.607345581055
196.9147 26.244384765625
197.0007 670.796142578125
197.9600 321.65771484375
198.0704 1785.64306640625
198.9808 1088.27673339844
199.6940 26.1466598510742
200.0700 890.2255859375
200.3500 21.7075595855713
200.9813 1161.82763671875
201.9979 1176.6142578125
202.1100 697.590270996094
203.0501 3882.23779296875
204.0800 14900.45703125
205.0900 8642.69921875
206.0900 3931.30883789063
207.0251 2218.51806640625
208.0041 691.668701171875
208.1117 1009.55993652344
208.7100 52.2399253845215
208.8929 102.979301452637
209.0130 921.887268066406
209.1301 63.5050582885742
209.8310 73.0485229492188
209.9797 582.850280761719
210.0800 670.6943359375
211.0034 3970.53540039063
212.0994 12076.3408203125
213.1100 13651.6875
214.1300 1667062.25
215.1200 277312.46875
216.1054 25768.349609375
217.0270 6202.43994140625
217.9750 306.218688964844
218.0800 3327.42456054688
218.9751 3434.41528320313
220.0896 7015.849609375
221.0600 3681.20239257813
222.0796 4573.23486328125
222.9738 291.813507080078
223.0600 771.218078613281
223.8599 43.8239669799805
224.0408 170.404067993164
224.6700 14.6185827255249
224.8164 37.2030487060547
224.9000 169.067138671875
225.2800 22.2994365692139
225.9373 114.697441101074
226.0640 39.5268402099609
226.7621 19.683572769165
226.9572 428.744384765625
227.9500 271.397399902344
228.1129 261.567901611328
228.9873 410.765808105469
229.0800 388.459869384766
230.0032 308.925903320313
230.0938 976.053466796875
230.7800 30.9867496490479
230.8923 95.9846343994141
231.0239 613.796020507813
231.1520 91.9058227539063
232.0688 2170.05834960938
233.0138 6627.04443359375
234.0700 4458.68994140625
235.0280 2238.640625
236.1098 9087.98828125
236.9956 4520.6904296875
237.9593 901.627197265625
238.9200 631.635864257813
239.8200 33.1591377258301
239.9720 202.528747558594
240.1141 17.6720428466797
240.8707 45.6500244140625
241.0159 592.199096679688
241.5800 17.3269577026367
241.8639 6.59750747680664
242.0186 253.119079589844
242.8100 51.524730682373
242.9141 145.522216796875
243.1000 139.955307006836
243.9200 84.0791320800781
244.0800 294.126159667969
244.2100 75.4663925170898
245.0000 242.64680480957
245.1102 234.687438964844
245.8800 69.5094604492188
246.0100 548.300354003906
246.1100 1125.21789550781
246.9200 53.7284851074219
247.0300 956.903625488281
247.1700 129.098159790039
247.9700 155.202453613281
248.0800 2023.61486816406
249.0576 1744.27197265625
249.7800 29.3703784942627
249.9100 150.23796081543
250.0800 1123.9833984375
250.8641 17.0408668518066
251.0800 179.03498840332
251.1800 81.5095672607422
252.8301 53.8202438354492
252.9796 172.106369018555
253.7800 16.3644008636475
253.9200 25.4443435668945
254.0500 53.8377227783203
254.8968 98.4576721191406
255.0682 38.4195823669434
255.9800 26.8822574615479
256.2400 34.7678871154785
256.6300 12.9967794418335
256.8600 77.0170669555664
256.9935 136.328231811523
257.1300 28.5555934906006
257.9500 144.495223999023
258.1000 91.7903366088867
258.9426 283.818542480469
259.1000 56.0878257751465
259.9300 143.07551574707
260.0600 908.878112792969
260.9600 166.638885498047
261.0900 426.760620117188
262.0700 1119.57446289063
262.1100 1359.15551757813
262.8000 32.4568061828613
263.0500 496.473114013672
263.1000 715.071350097656
263.2500 41.6122512817383
264.1200 4992.37255859375
265.0182 415.286712646484
265.1000 629.803039550781
265.6800 20.4850997924805
265.9500 100.866363525391
266.0800 193.908996582031
266.1900 72.4006042480469
266.8857 49.1592254638672
267.0183 95.6498413085938
267.1365 18.0939064025879
268.0016 31.9492378234863
268.1000 37.9431648254395
268.8235 62.1438179016113
268.9614 212.11181640625
269.0800 24.9618988037109
269.8555 39.8425140380859
269.9840 7.4973258972168
270.2900 24.6459407806396
271.0108 360.023529052734
271.9600 194.936050415039
272.9824 472.882568359375
273.9543 156.194702148438
274.0300 273.355346679688
274.1655 76.2247543334961
274.8838 232.108795166016
274.9900 396.723968505859
275.9521 285.378509521484
276.0689 352.825164794922
276.2700 22.9078979492188
276.9274 249.566986083984
277.0700 157.205627441406
277.1600 14.6559867858887
278.1200 5719.01806640625
278.9926 550.405090332031
279.1300 639.699279785156
279.7600 17.5773639678955
279.9209 90.0849609375
280.0300 71.8728103637695
280.1400 53.1081352233887
280.9666 80.6147308349609
281.0800 129.832443237305
281.7400 29.1719818115234
281.9626 6.15444183349609
282.1400 17.1494007110596
282.8484 35.9189834594727
282.9700 20.2020225524902
283.1000 50.3265495300293
284.0800 33.295654296875
284.8480 58.1947631835938
284.9632 406.833862304688
285.9458 16.2552032470703
286.1100 153.177001953125
286.2200 13.6257667541504
286.9167 163.833740234375
287.0052 8.38557434082031
287.1100 41.8569984436035
287.8673 14.4529304504395
287.9813 204.616882324219
288.1139 149.984039306641
288.9729 1299.6689453125
289.8500 178.908813476563
289.9919 184.121429443359
290.1600 167.119552612305
290.7373 50.7147369384766
290.9247 80.8662109375
291.0296 206.441757202148
291.8900 123.28768157959
292.1100 374.05859375
292.2200 163.851852416992
292.8800 438.601959228516
292.9661 992.349487304688
293.9880 346.51953125
294.1200 76.2761764526367
294.9600 418.282104492188
295.0242 54.2052688598633
295.8000 37.9781303405762
295.9727 69.6151123046875
296.1500 19.2442073822021
296.8586 259.659790039063
296.9818 257.501708984375
297.6900 31.7956790924072
297.9497 55.9971313476563
298.7800 108.664581298828
298.8800 94.0863037109375
298.9942 34.6747283935547
299.1400 31.5713939666748
300.0200 85.1431198120117
300.1700 32.1688194274902
300.7188 5.46662330627441
300.8925 77.3101654052734
302.0600 122.086860656738
302.9682 187.181686401367
303.0771 127.555969238281
303.7892 26.0197334289551
304.0100 119.174949645996
304.1700 360.428924560547
304.8200 39.1861000061035
305.0500 151.043197631836
305.2900 33.0572853088379
305.9700 30.8408126831055
306.1500 1647.73791503906
306.8375 8.16432857513428
306.9897 3.42778778076172
307.0814 491.044372558594
307.2400 36.9004325866699
308.0300 30.2060070037842
308.1700 34.0888786315918
308.9600 56.5271339416504
309.2400 16.2112693786621
310.6778 7.76703453063965
310.8446 118.430847167969
310.9700 100.620780944824
311.8600 13.8877115249634
313.0800 51.7447204589844
314.8500 15.5307302474976
314.9572 65.1255645751953
315.1000 85.5165786743164
315.2000 21.0722675323486
315.9800 212.284606933594
316.0800 114.004295349121
316.2000 17.0553073883057
317.0900 930.525573730469
317.1800 217.877365112305
317.9300 54.0908622741699
318.1000 771.342956542969
318.2100 79.8719711303711
319.0590 435.986145019531
319.1700 3776.28515625
320.1300 1045.021484375
320.2400 269.259307861328
320.9900 73.9712600708008
321.1200 190.53401184082
326.7600 37.7707099914551
326.8800 25.7667465209961
327.8500 13.1698789596558
328.5500 13.2801446914673
328.9100 24.9545059204102
329.0500 65.2168960571289
330.2100 23.1585388183594
330.9800 170.694747924805
332.0900 49.6220588684082
332.2400 22.8616638183594
333.0500 303.806976318359
333.1488 264.256958007813
334.1100 567.261474609375
334.1900 347.31689453125
335.1800 34145.62109375
336.1700 8514.1533203125
337.1300 865.210754394531
337.2100 407.54833984375
338.0800 42.5230369567871
338.1900 42.0355339050293
340.8800 13.0283517837524
344.9200 66.5676651000977
345.0500 42.1256523132324
345.2600 27.4334774017334
346.9300 55.6085624694824
347.0300 83.6983489990234
347.9000 13.2555932998657
348.0411 25.3268203735352
348.3300 14.1482381820679
348.7824 37.4600143432617
348.9584 155.010192871094
349.1400 108.966186523438
349.3100 58.6976318359375
350.0000 58.5142707824707
350.9100 43.7050666809082
351.0700 13.4957075119019
352.8327 46.2036895751953
352.9667 93.2130584716797
354.7200 28.7982273101807
357.0600 14.7676687240601
359.0300 30.8911647796631
363.1400 50.6605644226074
363.2800 13.378586769104
366.7899 60.5585708618164
367.1600 35.2088165283203
370.9100 97.669677734375
385.9300 13.0240297317505
389.0000 13.3275480270386
401.0183 36.6627502441406
406.9700 21.5851898193359
408.8685 1.83937644958496
