#"+EI Scan (rt: 3.856-3.920 min, 12 scans) R3M1.D  Subtract "
#Point,X(Thompsons),Y(Counts)
40.0889 1493.81030273438
41.0798 46716.6953125
41.9948 184.052795410156
42.1201 3912.63012695313
43.0799 96044.3125
44.0420 3888.9375
45.0262 465.368377685547
46.0118 34.2693099975586
46.9545 109.753967285156
48.8600 161.206634521484
49.0033 43.5544242858887
49.1800 40.607723236084
50.0497 3115.14819335938
51.0390 10979.0419921875
52.0398 9174.06640625
53.0298 5001.720703125
53.7759 4.12236976623535
54.0500 690.683410644531
54.1204 321.903137207031
55.0700 16210.5859375
56.0600 1042.91223144531
57.0594 976.666809082031
57.9290 52.2952270507813
58.0383 214.472106933594
59.0418 3606.78662109375
59.9120 62.4017562866211
60.1500 106.565223693848
61.0277 495.547790527344
62.0199 4286.37158203125
63.0289 12596.302734375
64.0301 4617.6728515625
65.0301 23552.55078125
65.9700 507.040130615234
66.0500 1554.55310058594
67.0327 1846.47766113281
67.9100 126.383148193359
68.0884 343.288635253906
69.0482 4085.904296875
70.0206 294.795989990234
70.1600 220.645751953125
71.0687 3477.51977539063
71.8679 21.4117317199707
72.0175 234.507064819336
72.1893 71.2433319091797
73.0386 2366.041015625
74.0146 2553.2802734375
75.0268 9705.51171875
76.0502 11857.876953125
77.0384 46537.53125
78.0484 69874.96875
79.0398 7513.634765625
79.9470 294.414398193359
80.0200 388.188995361328
80.9917 1395.44775390625
81.9285 262.142517089844
82.1059 397.486846923828
82.5800 158.266860961914
82.7600 285.364654541016
82.9122 257.251831054688
83.1320 10.657642364502
83.3200 378.910247802734
83.4400 135.181686401367
83.5900 152.72509765625
83.8100 18.4910202026367
84.0175 198.720260620117
84.1300 27.4833831787109
84.3300 54.9002265930176
84.9591 53.8324089050293
85.0700 316.252227783203
85.7800 37.742618560791
86.0289 983.923645019531
87.0003 4014.91259765625
88.0400 12946.875
89.0399 66193.4140625
90.0499 15598.158203125
91.0497 80171.1953125
92.0401 7544.42724609375
93.0187 696.654479980469
93.9308 108.773529052734
94.0681 25.5279350280762
94.2200 363.105346679688
94.3700 31.2777843475342
94.7656 55.4699478149414
94.9582 570.418884277344
95.0548 603.029907226563
95.1400 352.465087890625
95.6600 413.539703369141
95.9286 8.16649055480957
96.0669 60.0778427124023
96.2197 416.318023681641
96.7328 345.664398193359
96.8900 112.063453674316
97.0304 26.8196105957031
97.1788 28.2254028320313
97.9596 274.673187255859
98.0473 190.526962280273
98.9309 389.568603515625
99.0500 384.0439453125
99.6800 32.685962677002
100.0300 1076.92883300781
100.1203 270.636260986328
101.0297 21112.216796875
102.0400 60905.66015625
103.0397 22755.23828125
104.0301 3197.87451171875
105.0104 4837.76220703125
106.0400 8754.9189453125
106.8804 42.6619415283203
107.0066 2194.80444335938
107.5500 56.6456184387207
107.6800 105.792091369629
107.8200 288.404968261719
108.8300 970.416931152344
109.0060 1416.6552734375
109.9324 347.990051269531
110.0921 178.537673950195
110.2800 99.3530883789063
110.8264 474.748687744141
110.9848 200.537048339844
111.1300 131.377700805664
111.5000 73.4889297485352
111.6600 106.02742767334
111.9601 57.9172058105469
112.1239 173.847213745117
113.0294 2601.19213867188
114.0400 18654.994140625
115.0399 68385.2421875
116.0500 156038.15625
117.0374 20436.705078125
117.9900 214.408706665039
118.1300 755.97802734375
118.3400 2051.833984375
118.5500 3027.41040039063
118.6814 212.335372924805
119.0416 24.8281364440918
120.0993 839.700561523438
120.1992 1671.8173828125
121.0598 104099.296875
122.0500 10705.9296875
123.0200 1434.80712890625
123.4100 28.4025039672852
123.6670 109.172943115234
123.9174 70.9604721069336
124.6500 3364.43579101563
125.6000 10549.5498046875
126.0900 393.760650634766
127.0492 6503.58837890625
128.0400 50382.98046875
129.0398 109626.2890625
130.0499 52015.99609375
130.9791 436.070281982422
131.0600 6189.83056640625
131.9178 313.788482666016
132.0900 836.486572265625
132.9945 1758.91589355469
134.0450 685.678771972656
135.0245 2591.33569335938
135.8369 75.5109786987305
135.9968 405.011474609375
137.0000 12358.873046875
138.0071 2271.34814453125
139.0800 6596.37841796875
139.7500 1203.50671386719
139.9386 4258.84033203125
140.0648 290.072296142578
140.9955 2802.7607421875
141.0500 2254.87255859375
142.0597 7038.5341796875
143.0397 60729.4296875
144.0300 491512.5
145.0394 50328.31640625
145.9235 134.737182617188
146.0500 3711.4150390625
146.8909 337.547973632813
147.0624 163.955093383789
147.9794 1396.66967773438
148.0682 273.723571777344
148.8908 165.565078735352
149.0081 510.007659912109
150.0200 1634.28088378906
151.0110 3340.62329101563
151.9532 686.000732421875
152.0606 3234.978515625
152.9300 68.9958038330078
153.0603 2385.880859375
153.8947 197.520263671875
154.0496 8751.48828125
155.0176 5191.16796875
156.0696 12130.43359375
157.0463 18932.134765625
158.0401 16196.1806640625
158.9794 5910.53076171875
159.8821 55.2549591064453
159.9633 785.75244140625
160.9672 1058.62377929688
161.8419 24.4195613861084
162.0000 576.408630371094
163.0291 4123.4482421875
164.0397 3745.82690429688
165.0400 8675.6533203125
166.0499 3770.107421875
166.1626 28.0923843383789
167.0795 6238.12158203125
167.6000 759.067199707031
167.7014 2534.36645507813
167.9193 838.427612304688
168.0700 1465.52258300781
168.9266 23.1692428588867
169.0400 1708.07092285156
170.0599 18667.640625
171.0462 4107.18701171875
171.8900 36.7501335144043
172.0200 422.386383056641
172.1100 962.326477050781
172.8680 180.91389465332
173.0500 128.181030273438
173.9000 248.963302612305
174.1300 303.657745361328
174.8500 37.1087226867676
175.0100 920.736328125
176.0500 4602.62744140625
177.0502 3452.45141601563
178.0400 4990.4130859375
179.0402 2165.56469726563
179.1800 58.6853942871094
180.0303 1289.33068847656
180.0900 1200.26501464844
180.9426 1041.55981445313
181.9585 330.714660644531
182.0811 760.777221679688
182.8665 181.018280029297
183.0175 405.088745117188
183.0800 294.968658447266
184.0700 6665.3310546875
185.0511 3170.82250976563
186.0998 3588.7333984375
187.0380 2236.79125976563
187.8800 88.1902694702148
188.0077 589.343994140625
188.1200 202.621017456055
188.9657 449.889862060547
189.0503 1918.06262207031
190.0300 3973.62866210938
191.0601 9100.873046875
192.0590 8658.1689453125
193.0700 5355.28271484375
194.0289 1864.91247558594
194.1194 536.759460449219
194.9937 1559.95593261719
195.9000 275.605316162109
196.0351 364.883361816406
196.2500 75.594108581543
196.9343 240.221740722656
197.0300 554.820373535156
198.0505 2224.77294921875
198.9621 1139.9560546875
199.9074 340.417419433594
200.0500 730.33544921875
200.9690 1325.48303222656
202.0575 1926.4482421875
203.0497 3823.91137695313
204.0697 15502.234375
205.0696 9216.7236328125
205.9800 147.140075683594
206.0897 4107.55322265625
206.9703 282.56494140625
207.0500 1758.93481445313
208.0574 1744.85205078125
208.4200 54.7812995910645
208.9495 692.498168945313
209.0916 429.428924560547
209.4900 72.2641372680664
209.8089 68.8506317138672
209.9085 182.240509033203
210.0800 331.087677001953
210.1600 494.975952148438
211.0094 3692.46337890625
212.1152 12242.873046875
213.1095 14110.71875
214.1300 1784201.875
215.1200 298117.59375
216.1100 29470.501953125
217.0651 7374.728515625
218.0800 4178.02880859375
218.9675 3428.88696289063
220.0695 7383.359375
221.0446 4164.455078125
222.0800 5036.060546875
222.9240 573.6650390625
223.0227 462.225280761719
223.9247 175.630126953125
224.0400 85.0575637817383
224.2200 29.3388996124268
224.9450 99.8492126464844
225.0500 114.096534729004
226.0200 167.082656860352
226.3900 38.3250122070313
226.5400 25.9615612030029
226.7500 44.9744720458984
227.0900 331.208648681641
228.0700 694.137878417969
228.9838 594.641906738281
229.0683 119.557159423828
230.0098 515.983276367188
230.1200 815.289245605469
230.2200 53.6849670410156
231.0048 721.783081054688
231.1000 288.516387939453
232.0494 1818.13830566406
232.1500 579.927734375
233.0063 5904.05908203125
234.0359 4012.26684570313
234.9868 673.687255859375
235.0900 1704.40710449219
236.0997 9622.751953125
236.9856 5185.02197265625
237.9070 283.276611328125
237.9900 480.875
238.9569 505.174682617188
239.7900 77.3936538696289
239.9120 13.2262115478516
240.0400 92.8838272094727
240.9900 406.773956298828
241.8140 122.590744018555
241.9315 150.109954833984
242.1100 55.1622009277344
242.5900 26.9964427947998
242.6915 24.1516494750977
242.8600 26.3158512115479
242.9660 164.26921081543
243.0751 96.0684585571289
243.9100 115.085594177246
244.0700 261.713165283203
244.1700 59.2203254699707
244.8550 113.126403808594
245.0413 378.788940429688
246.0694 1957.36682128906
247.0093 756.446411132813
247.1200 304.725189208984
248.0896 2218.0478515625
249.0391 976.699096679688
249.1200 861.43701171875
249.8700 76.3755722045898
250.0400 680.70556640625
250.1600 576.609313964844
250.9500 194.306884765625
251.0700 142.695449829102
251.2100 47.3143577575684
251.9200 70.648078918457
252.1100 67.0771408081055
252.9148 2.84756469726563
253.0310 221.181671142578
253.6500 15.604926109314
253.7673 17.7751693725586
253.9637 51.4403533935547
254.1033 32.223217010498
254.8714 16.1954326629639
255.0242 49.4956130981445
255.1700 33.4716567993164
255.6752 11.6471633911133
255.8800 31.5044002532959
256.1218 31.5810012817383
256.6785 4.57008743286133
256.7898 90.6670761108398
256.9370 110.878929138184
257.0500 58.2119407653809
257.8526 92.4516296386719
258.0000 125.877197265625
258.6180 18.7313861846924
258.8759 188.367492675781
258.9916 10.5825347900391
259.1100 90.2177352905273
259.8900 154.086853027344
260.0300 578.251403808594
260.1200 345.479583740234
260.8729 129.294281005859
261.0100 276.704864501953
261.1600 80.3886337280273
262.0900 2868.78100585938
262.9737 201.101440429688
263.1100 1080.56970214844
263.2300 179.38053894043
264.1000 2945.95043945313
264.1500 2058.1728515625
265.0000 613.263732910156
265.1200 400.724945068359
265.7600 68.1350631713867
265.9874 118.304512023926
266.2000 149.573043823242
266.8432 157.876434326172
266.9874 56.6773300170898
267.9700 60.5346183776855
268.2100 42.5429420471191
268.8176 94.3382263183594
269.1100 37.5607376098633
269.7916 27.351245880127
269.9827 48.0075035095215
270.7796 1.94421768188477
270.8950 4.3336181640625
271.0229 276.851257324219
271.7866 55.0765075683594
271.9631 72.8319854736328
272.1000 107.653343200684
272.8484 45.2004699707031
272.9934 254.724090576172
273.9768 435.716857910156
274.1100 38.6663551330566
274.7829 89.9490509033203
274.9433 266.268615722656
275.1000 90.5947265625
275.9536 107.030364990234
276.0600 436.452362060547
276.1700 107.409240722656
276.9746 638.3486328125
278.0500 1226.83679199219
278.1300 4322.77490234375
279.0311 931.433715820313
279.1400 539.791320800781
279.9031 77.8891677856445
280.0400 143.259902954102
280.8578 127.458427429199
280.9506 18.1919555664063
281.0606 58.2406005859375
281.1700 28.9453639984131
282.0569 10.3491115570068
282.8949 116.670211791992
283.0600 15.5945024490356
283.8800 15.9237947463989
285.0413 861.315185546875
286.0400 156.637939453125
286.8145 46.1262054443359
287.0087 35.9519348144531
287.1162 52.6248321533203
287.2300 64.0955581665039
287.7900 32.1734504699707
288.0200 166.082046508789
288.1700 279.412231445313
288.9621 971.90478515625
290.0212 849.1572265625
290.9100 158.553375244141
291.0472 306.128173828125
291.9623 233.439834594727
292.1200 503.537353515625
292.9480 1078.03369140625
294.0000 208.276489257813
294.9917 504.896179199219
295.7000 14.5900774002075
295.8000 5.15334510803223
296.0119 127.722549438477
296.8950 582.738159179688
297.6600 46.9901924133301
297.8299 0.199131011962891
298.1500 14.2842216491699
298.7788 37.6918563842773
298.9432 102.817687988281
299.7700 13.3484601974487
299.9900 28.1707286834717
300.1000 38.2771263122559
300.7732 7.86817264556885
300.9303 108.042549133301
301.0700 65.8745193481445
301.1800 28.8225860595703
301.9000 14.7772645950317
301.9811 24.4294414520264
302.1200 142.480407714844
302.8500 22.0056667327881
303.0055 273.128540039063
303.9000 52.8288230895996
304.1400 328.609649658203
304.2700 122.946380615234
304.8760 11.5034103393555
305.0000 71.6694259643555
305.1194 140.478927612305
306.0800 578.022766113281
306.2000 1345.95764160156
306.9796 118.876342773438
307.1300 557.297973632813
307.9700 44.8818321228027
308.1000 22.56764793396
308.8800 35.3356666564941
309.0100 72.573112487793
309.1300 15.2895956039429
310.7055 33.8683204650879
310.9077 112.234191894531
311.1100 42.4262809753418
311.8700 23.9080448150635
312.8300 13.5773916244507
313.0300 22.4687652587891
313.9433 9.68674945831299
314.7897 30.2218246459961
315.0285 113.524932861328
315.2000 14.3509368896484
315.7600 20.0537757873535
315.9300 63.6968803405762
316.0800 162.124588012695
316.2600 66.5741806030273
317.1300 779.867370605469
317.2200 282.182708740234
318.0900 678.499816894531
318.2100 199.7734375
319.1699 4219.826171875
319.9100 122.470909118652
320.0900 606.9130859375
320.2100 670.679260253906
321.0300 164.914672851563
321.1700 133.827835083008
322.1400 15.2937202453613
324.9300 13.1881828308105
326.8300 28.2166690826416
326.9200 32.5869331359863
327.0300 46.3394355773926
329.1307 23.5144863128662
330.7200 56.5391845703125
330.8700 62.2689933776855
331.0256 92.9188003540039
331.1700 16.0339603424072
332.0800 58.6415824890137
332.8500 34.6245040893555
333.0262 51.9667587280273
333.1200 476.307464599609
333.2500 97.4081192016602
334.0700 252.580123901367
334.1800 756.861877441406
335.1900 35886.44140625
336.0200 124.340629577637
336.1900 8665.8583984375
337.0800 176.416381835938
337.1800 908.698669433594
337.9600 17.6402950286865
338.0800 69.5260238647461
338.1900 40.6109313964844
338.9500 13.6088056564331
341.0500 15.0020599365234
344.8700 105.793418884277
345.0200 33.0420837402344
346.1400 29.2740955352783
346.9500 57.8633613586426
347.0100 59.4289360046387
347.2200 76.0051727294922
347.3300 14.0504112243652
347.8300 14.2195692062378
348.1700 102.380332946777
348.7240 26.9049682617188
348.9093 132.422698974609
349.1031 213.629440307617
350.0300 72.6008682250977
350.2200 45.4478034973145
350.7100 47.6106376647949
350.8382 3.80109310150146
351.2700 12.8619527816772
352.7100 33.2927322387695
352.9033 41.1102256774902
353.0200 56.3810081481934
353.1500 67.8704223632813
354.8817 23.1017246246338
356.7900 30.6007785797119
357.9700 14.7927961349487
359.0000 34.6736297607422
361.0000 62.8601264953613
362.7800 30.3518505096436
364.9000 16.4828338623047
366.6000 13.3163032531738
366.7500 14.8650207519531
366.9425 60.525634765625
367.1300 61.4846000671387
367.9500 45.303653717041
370.9415 20.2429733276367
373.1100 17.0430889129639
380.9500 29.4698467254639
384.0300 12.9081335067749
384.7200 16.1578941345215
400.8400 26.4372959136963
401.0055 5.4013147354126
401.1300 26.2611484527588
411.0300 16.4272499084473
415.2056 21.5427894592285
