#"+EI Scan (rt: 3.850-3.914 min, 12 scans) R7M1.D  Subtract "
#Point,X(Thompsons),Y(Counts)
40.0814 1736.27807617188
41.0696 45942.21875
42.1000 3943.9130859375
43.0797 94490.46875
44.0600 4002.32885742188
45.0151 312.988891601563
46.9738 252.237121582031
47.8800 16.0503215789795
48.8680 47.5685577392578
48.9917 127.983810424805
49.1000 46.3677253723145
50.0287 3096.88818359375
51.0387 10701.5888671875
52.0502 8865.177734375
53.0603 5127.17138671875
53.8400 54.1435127258301
53.9911 382.724304199219
54.0900 459.737701416016
54.2279 109.890449523926
55.0591 15491.9013671875
56.0100 822.481384277344
56.0904 205.991943359375
57.0508 1310.32775878906
58.1000 142.580932617188
58.1619 188.425567626953
59.0358 3347.1279296875
60.0493 300.173431396484
60.6000 23.0240879058838
60.7688 7.59846019744873
60.9995 332.855407714844
61.1137 139.535736083984
62.0186 4122.1923828125
63.0201 12530.697265625
64.0300 4696.6494140625
65.0394 23303.029296875
65.9393 380.030151367188
66.0600 1837.09436035156
67.0233 1825.61376953125
67.8500 20.3636932373047
68.0414 393.686279296875
69.0580 4119.87109375
69.9932 331.723388671875
70.0900 211.792938232422
70.2000 22.886812210083
71.0413 1078.94311523438
71.1000 2097.67602539063
71.8700 91.7782211303711
72.0181 96.4857940673828
72.1300 163.659683227539
73.0300 2589.7861328125
73.9103 56.6628379821777
74.0345 2529.1845703125
75.0157 9741.4619140625
76.0410 12083.640625
77.0467 45668.46875
78.0477 69876.078125
79.0317 7138.08642578125
79.9027 121.13623046875
80.0123 412.867980957031
80.1739 59.7825355529785
80.9958 1341.43334960938
81.7780 48.2177124023438
81.9944 261.259552001953
82.1800 339.586578369141
82.6400 78.7497024536133
82.7582 60.5679931640625
83.2600 687.327087402344
83.4200 172.404541015625
83.7724 120.983421325684
84.0348 3.3188362121582
84.1300 33.1789474487305
84.8874 261.78857421875
85.0120 139.322067260742
85.9700 732.976318359375
86.0687 286.641357421875
87.0002 3825.078125
88.0299 12703.1015625
89.0297 64468.28515625
90.0501 15420.1875
91.0596 78870.71875
92.0500 7416.77197265625
92.9800 910.567932128906
93.0644 46.0752601623535
93.5100 18.022741317749
94.1393 253.955017089844
94.2700 71.3777008056641
94.3900 126.285888671875
94.7487 20.156364440918
94.9243 17.191650390625
95.0747 548.289794921875
95.2000 701.778747558594
95.3700 130.014007568359
95.5700 205.257247924805
96.1644 205.234558105469
96.4200 260.061889648438
96.6675 246.784683227539
96.8600 212.615097045898
97.0897 249.87467956543
97.7385 21.4602355957031
97.9000 301.412445068359
97.9931 111.879081726074
98.3500 17.5854434967041
98.5200 13.1474876403809
98.7923 26.5350704193115
98.9293 281.669036865234
99.0409 335.348846435547
100.0000 1182.66870117188
100.1500 258.593597412109
101.0400 20286.193359375
102.0400 59450.41015625
103.0400 22439.587890625
104.0498 3000.61669921875
105.0272 4835.03076171875
106.0401 8921.037109375
107.0061 1615.38098144531
107.0857 585.549743652344
107.7954 100.598152160645
108.2252 11.4676809310913
108.8200 1362.11218261719
108.9897 972.682861328125
109.7687 209.760223388672
109.8835 400.263305664063
110.0857 93.5145568847656
110.5600 59.9968719482422
110.7912 16.515552520752
110.8800 56.505298614502
111.0224 578.301574707031
111.3800 36.2857322692871
111.8000 116.102317810059
111.9200 65.1633987426758
112.0500 196.512710571289
113.0397 2599.8701171875
114.0500 19028.392578125
115.0400 67957.265625
116.0400 153090.09375
117.0391 20354.861328125
117.8100 107.16397857666
117.9708 169.562210083008
118.1254 121.810600280762
118.2600 1518.93493652344
118.4200 866.251037597656
118.5300 2413.44458007813
118.7100 204.599807739258
120.0000 76.0319671630859
120.1699 1959.46447753906
121.0599 105589.1484375
122.0497 10327.169921875
122.9300 107.229827880859
123.0419 1355.86791992188
123.6500 67.1831741333008
123.7600 210.25553894043
124.3500 103.126655578613
124.4600 234.05078125
124.5900 2104.38037109375
125.5400 8139.51220703125
125.6500 1738.74560546875
126.9718 757.459899902344
127.0606 5522.30126953125
128.0400 48922.40234375
129.0397 107252.4296875
130.0500 50412.171875
131.0485 6560.4580078125
131.8700 66.2671737670898
132.0320 1215.19592285156
132.8881 342.760955810547
133.0075 1326.19738769531
134.0000 546.386657714844
134.0857 81.7190628051758
135.0526 3129.98413085938
135.9500 274.526519775391
136.0467 314.514465332031
137.0100 13326.916015625
137.9500 468.589691162109
138.0194 1561.61645507813
139.0268 3498.36303710938
139.1300 2784.72045898438
139.6529 678.49951171875
139.8100 1188.28918457031
139.9596 2931.48876953125
140.0626 1010.61285400391
141.0200 5422.9609375
142.0700 6632.26953125
143.0397 58399.49609375
144.0400 480868.1875
145.0494 49795.30859375
145.9864 928.839294433594
146.0511 2655.53857421875
146.6917 52.9604530334473
146.9578 620.84619140625
147.8191 35.9039077758789
148.0298 1437.455078125
148.9634 532.178466796875
149.0832 151.279968261719
149.9600 936.486633300781
150.0296 730.018371582031
150.9300 14.7644653320313
151.0300 3686.28076171875
152.0404 4055.8564453125
153.0598 2665.7978515625
154.0598 9168.8134765625
155.0223 4858.54638671875
156.0589 11594.66796875
157.0599 19067.681640625
158.0497 15709.150390625
158.9828 5572.23828125
159.9699 576.047668457031
160.9597 753.203857421875
161.9100 120.614540100098
162.0268 286.910217285156
162.1040 202.472305297852
162.9977 3840.07104492188
164.0293 3893.19189453125
165.0396 5641.80712890625
165.0904 2710.49829101563
165.8500 95.0236511230469
166.0295 1335.85852050781
166.0800 2219.21704101563
167.0478 3386.44946289063
167.1600 2760.4658203125
167.7102 1738.66015625
167.8200 1341.83544921875
168.0003 1388.69079589844
168.9593 149.788421630859
169.0595 1456.626953125
170.0700 18408.98828125
171.0479 3704.25317382813
171.9511 271.157897949219
172.0419 1089.20092773438
172.9298 213.958587646484
173.0800 123.105186462402
173.6200 13.4232635498047
173.8908 87.8986206054688
174.0100 364.819244384766
174.1400 82.268440246582
174.8598 41.157886505127
175.0500 877.13525390625
175.9587 735.478332519531
176.0499 3459.1787109375
177.0404 3240.02075195313
178.0600 4764.39990234375
178.9740 425.160369873047
179.0491 1377.16687011719
179.1600 202.010971069336
179.9219 79.1859588623047
180.0700 2353.45556640625
180.7900 80.4878311157227
180.9209 580.210205078125
181.0465 238.428970336914
182.0200 1262.45397949219
182.8289 16.0605621337891
183.0700 964.116271972656
184.0801 6535.103515625
185.0303 2688.05908203125
186.0900 3525.63696289063
187.0500 2669.22216796875
188.0200 573.765319824219
188.0896 458.195861816406
189.0493 2435.2412109375
190.0702 3875.27294921875
191.0472 8655.01953125
192.0601 8198.2529296875
193.0600 5798.501953125
194.0403 2611.4501953125
194.9199 19.6666259765625
195.0000 1182.14831542969
195.9987 665.5302734375
196.0700 175.997604370117
196.9428 632.442504882813
198.0200 783.395141601563
198.0900 1268.0517578125
198.8500 276.42236328125
198.9474 265.763610839844
199.0400 429.359375
199.9638 348.165100097656
200.0800 808.689514160156
200.9800 1538.79064941406
201.8611 213.007537841797
202.0280 1666.90002441406
202.9996 1802.39318847656
203.0700 1381.72619628906
204.0800 15603.6220703125
205.0699 8640.8154296875
206.0797 4044.87231445313
207.0167 1842.33203125
208.0217 1695.81311035156
208.1500 207.082504272461
208.5100 27.7140140533447
208.9814 331.264068603516
209.1200 667.696350097656
209.2300 191.007431030273
209.8887 27.7794761657715
210.0400 463.762969970703
210.1700 212.423538208008
211.0113 4020.02490234375
212.0984 12245.7314453125
213.1067 13238.7041015625
214.1300 1746887.25
215.1300 293794.96875
216.1100 27732.908203125
217.0700 7980.83251953125
218.0695 4080.6943359375
218.9790 3240.62182617188
220.0887 7328.45068359375
221.0100 936.244873046875
221.0800 3524.33569335938
222.0800 4506.87255859375
222.1400 560.592346191406
222.9400 195.860290527344
223.0500 1011.64923095703
223.9259 7.02983856201172
224.0700 214.90446472168
224.2100 21.158275604248
224.9756 173.001617431641
225.0672 33.4659957885742
225.9493 101.542144775391
226.1000 44.3206329345703
226.2200 36.7070045471191
227.0412 337.669311523438
227.9246 33.5552215576172
228.0720 535.471069335938
228.2000 29.1275806427002
228.8869 289.453369140625
229.0140 303.930786132813
229.1128 117.294921875
229.9454 129.996551513672
230.0779 1270.810546875
231.0452 957.569702148438
232.0585 2206.98388671875
232.1700 66.8505783081055
233.0199 6063.935546875
234.0455 4856.1552734375
235.0231 2424.82446289063
236.0899 8950.236328125
236.9893 5186.23486328125
237.9690 212.18017578125
238.0400 751.599548339844
238.9634 552.362548828125
239.8400 46.14599609375
239.9343 67.3953094482422
240.0500 44.7734832763672
240.1800 75.7691650390625
240.9690 898.355346679688
241.6900 18.4605464935303
241.8100 24.0639934539795
241.9666 176.340209960938
242.0732 160.607269287109
242.9410 346.265625
243.1900 59.4411010742188
244.0100 334.926422119141
244.1800 126.711853027344
244.7600 44.8787117004395
244.9809 171.121643066406
245.0900 293.215545654297
245.9800 727.652893066406
246.0900 1425.21691894531
246.9700 293.079864501953
247.0800 923.415222167969
248.0100 490.262084960938
248.1100 1735.10461425781
248.9302 176.263641357422
249.0600 1760.61193847656
250.0200 506.90576171875
250.1200 995.278015136719
250.7500 52.046085357666
250.8762 87.2324829101563
251.0700 186.02214050293
251.9900 64.0008087158203
252.0600 27.5250453948975
253.0135 228.330841064453
253.7800 28.2243633270264
253.9600 52.6590538024902
254.0900 99.07275390625
254.6600 30.4254989624023
254.8590 85.3500518798828
255.0297 1.79247665405273
255.7700 37.5765800476074
256.0100 63.667667388916
256.1100 14.2555532455444
256.8600 207.842239379883
256.9949 84.6220703125
257.7900 13.0288820266724
257.9300 38.5854415893555
258.0600 175.695327758789
258.2400 16.0903015136719
258.8097 2.40665817260742
258.9300 209.331497192383
259.0328 52.1929397583008
259.1400 23.6910629272461
259.9900 432.675262451172
260.0700 502.117279052734
260.8700 75.8454132080078
261.0200 247.158935546875
261.1400 239.651443481445
262.0700 2976.77465820313
262.8761 83.2350540161133
263.0800 1034.05651855469
263.2400 329.932312011719
264.1000 4860.69140625
264.7800 45.0283508300781
264.9314 124.933525085449
265.1300 977.726013183594
266.0700 335.980804443359
266.4400 24.4555892944336
266.8853 92.7102813720703
266.9911 78.4202270507813
267.0963 74.0082931518555
268.0000 33.347469329834
268.8171 67.2818298339844
268.9457 142.055816650391
269.8700 53.3211631774902
270.8660 80.9317779541016
270.9876 162.537780761719
271.8329 104.091957092285
271.9899 73.9771881103516
272.1000 124.804573059082
272.9113 139.7021484375
273.0500 322.30712890625
273.9600 278.232208251953
274.0862 287.302368164063
274.9600 1090.53588867188
275.9833 415.490142822266
276.0913 208.478988647461
276.3400 57.3098754882813
276.8638 161.741958618164
277.0321 290.700744628906
278.1000 5450.0322265625
278.9478 230.704986572266
279.0901 1074.20947265625
279.8700 16.8345603942871
280.0275 136.525466918945
280.1600 107.027549743652
280.3200 25.2075061798096
280.9236 58.1348571777344
281.0586 121.843017578125
281.8900 15.6475744247437
282.7500 36.1984825134277
283.1014 27.1467380523682
283.9800 23.3456115722656
284.6200 31.7771625518799
284.9944 355.137390136719
285.9824 237.567810058594
286.1581 138.882781982422
286.9186 47.643383026123
287.0500 227.961318969727
287.1486 21.2108345031738
287.9100 74.2799835205078
288.0452 315.261627197266
288.9421 412.75341796875
289.0211 241.01025390625
289.9144 52.1369781494141
290.0218 585.087707519531
290.1317 60.8407363891602
290.9750 310.041809082031
291.0900 161.507186889648
291.8600 61.1921806335449
292.0046 20.5403594970703
292.1100 680.661987304688
292.9776 1033.28833007813
293.9882 465.059631347656
295.0026 331.621826171875
295.8926 114.337310791016
296.0500 45.9931144714355
296.9366 418.081420898438
297.8000 22.42746925354
297.9026 137.707962036133
298.7553 6.93446254730225
298.8400 123.727195739746
298.9909 21.4026870727539
299.8700 17.0594272613525
300.1600 46.7089424133301
300.8900 151.948593139648
301.0189 74.4119110107422
301.9000 106.174583435059
302.0600 121.130737304688
302.2500 30.1396083831787
302.8643 4.18340682983398
302.9893 86.3055267333984
303.1819 26.1794509887695
303.7800 30.984094619751
304.0800 411.880004882813
304.2424 81.8305358886719
304.9818 94.2494430541992
305.1500 195.500564575195
306.1300 1374.1298828125
306.2000 507.66455078125
307.0400 513.488159179688
307.2078 227.192947387695
307.9500 19.6650791168213
308.1190 104.744262695313
308.2400 23.365119934082
308.9800 51.445484161377
309.1900 35.121898651123
310.8827 108.551376342773
311.0380 54.9745559692383
311.8700 17.7376556396484
311.9900 16.3318157196045
312.1000 19.5212249755859
312.8600 32.9534149169922
314.6000 15.6859693527222
314.7400 27.316780090332
315.0400 74.821647644043
315.8500 77.9772262573242
315.9800 61.5473442077637
316.1500 88.6477432250977
317.1000 437.919189453125
317.2000 812.073913574219
318.1000 415.099212646484
318.2200 483.89599609375
319.1697 4339.43310546875
320.0700 379.742034912109
320.1600 872.071838378906
320.8200 26.3890438079834
321.1200 270.266998291016
322.0400 15.0076875686646
322.9900 15.785717010498
323.1700 32.5728340148926
327.0200 12.9404220581055
328.9534 91.0962448120117
329.9000 20.5936679840088
330.8700 64.0345687866211
330.9860 73.8988494873047
331.2000 50.5068168640137
331.9400 16.3124675750732
332.0900 44.9303703308105
332.7700 16.9079151153564
333.0160 200.164169311523
333.1200 372.238616943359
334.0200 29.782958984375
334.1600 919.468322753906
334.2700 80.3848190307617
335.1800 35210.7734375
336.1600 6256.33447265625
336.2200 2310.3818359375
337.1000 1065.37927246094
337.2100 218.623306274414
337.8900 34.4617958068848
338.1700 90.6881790161133
338.3300 19.8502311706543
344.2800 13.4894762039185
344.7900 13.5952672958374
344.9544 2.21010589599609
346.0300 61.5299987792969
347.0700 141.659225463867
347.2300 38.8129730224609
348.0500 44.28125
348.1500 12.7851819992065
348.5100 16.1644802093506
348.6600 21.1406211853027
348.9654 281.217987060547
349.1386 22.4366798400879
349.2700 14.3507852554321
350.0000 83.771842956543
350.0900 82.7856903076172
350.9600 16.6784343719482
352.8627 167.903121948242
352.9600 55.0514793395996
353.8100 35.1681289672852
354.8400 13.1285810470581
354.9573 42.6332397460938
357.0300 16.521146774292
359.0700 33.233226776123
362.9200 64.4175109863281
363.1200 22.8412494659424
366.7200 14.4750938415527
366.9023 51.3125839233398
367.1300 30.7194213867188
368.9500 14.1389780044556
370.8600 16.6468353271484
371.0551 20.105770111084
371.9400 12.8710861206055
374.8500 19.5993518829346
377.1400 24.1037616729736
380.8200 17.6204376220703
400.9700 21.3315811157227
401.2000 16.8089485168457
406.0100 14.6573028564453
407.0500 16.1871509552002
409.0300 12.8796768188477
412.9300 12.8789358139038
451.1300 17.3672790527344
