#"+EI Scan (rt: 3.844-3.908 min, 12 scans) R10M1.D  Subtract "
#Point,X(Thompsons),Y(Counts)
40.1000 1183.84997558594
41.0693 41906.265625
42.0886 3537.13671875
43.0800 83487.0546875
44.0405 3473.03051757813
44.9473 242.76106262207
45.0354 80.1332244873047
45.8500 39.9468574523926
46.9239 148.971343994141
48.8401 0.138852119445801
48.9759 122.964294433594
49.1100 70.8797378540039
50.0100 2205.36303710938
50.0718 630.076538085938
51.0391 9659.4306640625
52.0400 8086.40673828125
53.0380 4886.4169921875
53.9289 221.449127197266
54.0800 648.401245117188
55.0594 13958.4501953125
55.9600 246.216079711914
56.0667 665.276245117188
56.8600 71.9047927856445
56.9991 719.782531738281
58.0328 131.715927124023
58.1900 90.334228515625
59.0359 3017.130859375
60.0100 450.923461914063
60.1189 29.426025390625
60.7400 20.5259437561035
61.0100 485.856842041016
62.0296 3858.20776367188
63.0197 11118.671875
63.9017 257.646148681641
64.0297 3678.267578125
65.0399 21682.744140625
66.0304 2107.39453125
67.0330 1764.58435058594
67.9257 124.019081115723
68.0700 307.261962890625
69.0451 2980.51025390625
69.1600 92.404670715332
69.8300 26.06520652771
69.9578 265.782257080078
70.1037 261.417877197266
70.2400 53.7422065734863
71.0605 2875.81689453125
71.9700 52.4337692260742
72.0800 221.415954589844
72.2500 90.0787048339844
73.0288 2042.9814453125
73.9579 1040.46179199219
74.0564 1086.04748535156
75.0258 8241.9443359375
76.0400 10655.958984375
77.0370 42260.63671875
78.0572 63963.8515625
79.0475 7014.76708984375
79.8997 118.376541137695
79.9909 472.298706054688
81.0019 1311.51293945313
81.6900 62.5042610168457
81.8933 67.5285720825195
82.0198 155.996032714844
82.1793 184.452239990234
82.4700 119.948097229004
82.8115 19.0869960784912
82.9600 317.7744140625
83.0818 45.1700477600098
83.2200 94.2349319458008
83.3200 135.844253540039
83.5400 367.306671142578
83.8300 114.086143493652
83.9976 23.8328495025635
84.9020 182.048370361328
85.0000 136.978271484375
85.1665 35.3162155151367
85.9500 115.516136169434
86.0200 823.564208984375
86.8129 39.2339820861816
87.0201 3448.51611328125
88.0401 10901.439453125
89.0400 57849.015625
90.0601 13727.375
91.0500 73250.8828125
92.0500 6755.22607421875
92.9410 262.464721679688
93.0432 448.471435546875
93.8800 159.558181762695
94.0100 122.048400878906
94.1800 90.1852493286133
94.3100 75.5878677368164
94.4300 18.2526817321777
94.6432 41.6880912780762
94.8491 70.4407119750977
94.9643 9.32258605957031
95.0631 629.094421386719
95.1809 655.097900390625
95.5886 75.8857574462891
95.8592 364.046661376953
96.1900 123.167541503906
96.3900 79.4999008178711
96.5500 162.914932250977
96.7000 178.887985229492
96.8032 74.9827041625977
96.9760 44.6144943237305
97.0600 77.7257995605469
97.1900 68.2043685913086
97.7385 4.83660888671875
97.9300 113.600318908691
98.0425 347.138397216797
98.1632 38.1340713500977
98.8792 262.623046875
99.0125 289.411956787109
99.1600 48.4640045166016
99.8800 200.196853637695
100.0000 715.722412109375
100.1500 193.441589355469
101.0400 17923.564453125
102.0300 52130.1484375
103.0396 19620.8125
103.9897 676.275634765625
104.0503 2088.8125
105.0086 3728.60620117188
105.0706 791.953186035156
106.0401 8507.9423828125
107.0311 2280.037109375
107.6400 58.5778465270996
107.7700 93.1692504882813
107.9841 190.199630737305
108.1167 191.694305419922
108.8800 3058.90649414063
109.6865 274.236267089844
109.9051 52.6844024658203
110.0414 184.342910766602
110.2000 228.132308959961
110.7100 30.0658092498779
110.9423 249.389282226563
111.0300 312.943786621094
111.1400 125.982482910156
111.6600 68.7073211669922
111.8600 59.9707679748535
112.0700 118.881561279297
112.2400 25.8534450531006
113.0132 1825.54553222656
114.0300 15920.431640625
115.0400 58005.44140625
116.0400 128798.4609375
117.0459 16640.431640625
118.0657 560.158386230469
118.1694 1636.703125
118.4600 1097.30895996094
118.6100 1561.65588378906
118.8539 269.140777587891
120.1700 2245.8076171875
121.0499 93905
122.0498 9392.58984375
122.9081 69.7766418457031
123.0400 1312.88366699219
123.6800 23.3675441741943
123.8055 80.3936614990234
124.3200 90.6543960571289
124.5800 1247.79748535156
124.7200 961.699768066406
124.8086 75.6832275390625
125.5800 8161.22216796875
126.0400 45.5253944396973
127.0405 5575.1171875
128.0401 43186.71484375
129.0399 93568.1015625
130.0599 43303.23828125
131.0603 6243.7666015625
131.9021 35.6298713684082
132.0900 1255.17504882813
133.0132 1666.58471679688
133.9256 107.531883239746
134.0400 199.817733764648
134.1243 154.370407104492
135.0312 2514.35961914063
135.8240 142.121276855469
136.0857 425.390777587891
137.0100 13121.2890625
138.0071 1700.93469238281
138.1500 195.501342773438
139.0731 5365.55908203125
139.6300 242.199035644531
139.7898 889.484680175781
139.8900 2496.86938476563
140.0077 1453.072265625
140.9462 494.098876953125
141.0400 4022.17602539063
142.0580 5709.3203125
143.0401 51025.68359375
144.0400 402888.6875
145.0400 41013.8515625
146.0099 3116.587890625
146.9355 381.998657226563
147.0247 248.124618530273
147.9500 269.353546142578
148.0500 1256.60986328125
148.8000 44.4948310852051
148.9541 304.744293212891
149.0444 307.37646484375
150.0000 1104.09606933594
150.0892 360.280059814453
150.9083 100.681732177734
151.0431 2734.0498046875
151.9300 272.926788330078
152.0400 2613.23364257813
152.1000 607.158264160156
153.0337 1829.68383789063
153.1376 243.468154907227
154.0501 7795.275390625
155.0262 4661.21142578125
156.0604 10655.400390625
157.0497 16594.958984375
158.0496 13030.0751953125
158.9835 5574.32861328125
159.9836 706.933837890625
160.9300 999.535766601563
161.9268 319.843902587891
162.0700 227.334411621094
163.0105 3834.13696289063
164.0294 3259.87255859375
165.0600 7201.7265625
166.0700 3242.29809570313
167.1000 5499.314453125
167.5400 125.051490783691
167.6627 237.583145141602
167.8427 1226.201171875
167.9600 2663.36547851563
168.1389 189.635360717773
168.9409 333.689727783203
169.0400 1053.27209472656
170.0600 15210.4873046875
171.0275 3623.55053710938
171.9976 411.214294433594
172.0700 959.369384765625
172.7988 25.5330505371094
172.9924 141.431747436523
173.1000 178.36735534668
173.7900 43.4894065856934
173.9700 230.343139648438
174.0600 181.105911254883
174.2000 22.7446994781494
174.9654 378.488220214844
175.0700 315.094024658203
175.8900 219.477554321289
176.0600 3550.6982421875
176.9258 62.9126205444336
177.0402 2710.31518554688
178.0691 4202.56591796875
178.9160 204.810821533203
179.0300 1471.02734375
180.0300 2025.39294433594
180.2000 47.5325202941895
180.9426 764.421691894531
181.0500 378.491455078125
181.9800 761.599426269531
182.0949 369.560638427734
182.7000 33.2458229064941
183.0300 640.300964355469
183.1400 96.1743698120117
184.0600 5655.494140625
184.9464 273.228088378906
185.0700 2112.59155273438
185.9800 162.239196777344
186.1100 2726.97509765625
187.0500 2181.77954101563
187.9800 543.006225585938
188.1390 327.500732421875
188.8629 35.668514251709
189.0391 2077.91333007813
189.1600 181.395462036133
189.8500 111.351257324219
190.0500 3364.78637695313
191.0567 7364.43603515625
192.0601 7694.40478515625
193.0507 5021.8681640625
194.0393 2135.689453125
194.9623 1010.6162109375
195.8906 57.1334609985352
196.0233 399.740142822266
196.9390 769.311767578125
197.8970 32.9775695800781
198.0605 1877.39038085938
198.9272 495.080383300781
199.0400 381.314056396484
199.9021 167.698379516602
200.0584 685.971740722656
200.3600 37.7039833068848
200.9191 92.4796447753906
201.0224 1050.50402832031
201.6553 15.8563966751099
201.9650 289.21875
202.0300 1017.98852539063
202.1200 253.099075317383
202.9382 156.609573364258
203.0582 3016.19604492188
204.0700 13512.8017578125
205.0700 7819.07177734375
206.0800 2763.08422851563
206.1500 842.065124511719
207.0451 1988.66845703125
207.9043 71.0852966308594
208.0677 1200.85021972656
208.1704 289.557037353516
208.6800 43.1064033508301
209.0500 974.182861328125
209.2000 219.918045043945
209.6000 40.1230964660645
209.9600 110.246559143066
210.0807 468.0458984375
210.2200 415.566009521484
210.9963 2425.673828125
211.0700 1374.484375
212.1100 10874.0361328125
213.1067 12052.564453125
214.1300 1475759.75
215.1300 246863.0625
216.1100 24088.005859375
217.0082 1625.23815917969
217.0900 4205.19482421875
218.0657 3237.341796875
219.0000 4198.44677734375
220.0697 6240.2724609375
221.0389 3717.52099609375
222.0292 637.4365234375
222.0800 3696.34204101563
223.0000 990.930908203125
223.6800 14.8006563186646
223.9300 266.248687744141
224.1900 51.1982574462891
224.6784 13.5449371337891
224.8964 112.891578674316
225.0379 57.9549255371094
225.2800 13.7106370925903
225.9600 54.0587959289551
226.1400 82.8797836303711
226.8900 47.1311569213867
227.0200 389.499328613281
227.7333 12.3214330673218
227.9356 139.874237060547
228.0800 348.748168945313
228.8968 306.006439208984
229.0455 451.639465332031
230.0070 549.758850097656
230.0807 805.58056640625
231.0050 67.3651275634766
231.1209 754.949340820313
232.0601 2005.31005859375
232.1700 64.8274459838867
233.0206 5830.61083984375
234.0438 3672.09448242188
235.0364 2231.68896484375
236.0587 2721.16577148438
236.1100 4939.06884765625
236.9896 4574.52392578125
237.9232 389.395751953125
237.9903 417.2685546875
238.7320 5.60617828369141
238.9530 452.524841308594
239.9300 125.831642150879
240.0746 101.959167480469
240.2300 16.1047439575195
240.9351 250.320373535156
241.0500 339.307556152344
241.8654 5.12435531616211
241.9735 198.486785888672
242.1300 99.9889755249023
242.9000 109.869323730469
243.0200 201.72688293457
243.6300 13.8176145553589
243.8200 76.5943603515625
244.0500 254.61540222168
244.9365 284.896820068359
245.1100 127.392921447754
245.9900 268.175659179688
246.1100 1497.24377441406
246.9988 750.409790039063
247.1000 204.613174438477
247.9500 78.3659973144531
248.0800 1780.52673339844
248.7200 21.7461261749268
249.0400 1249.25158691406
249.1100 412.223785400391
249.8100 18.1782035827637
250.0100 265.840301513672
250.1300 841.302307128906
250.7853 45.9388465881348
250.9369 153.232711791992
251.0800 94.6444931030273
252.0400 65.8474044799805
252.7000 0.156991958618164
252.8845 75.6163330078125
253.0500 127.256935119629
253.2600 18.9915790557861
253.8800 29.3702964782715
254.0900 102.985778808594
254.8967 103.72095489502
255.0200 101.982276916504
255.9900 48.7687873840332
256.2400 46.2605781555176
256.6848 1.59677886962891
256.8324 79.8855590820313
256.9433 47.8686141967773
257.0400 105.343238830566
257.1700 16.8853359222412
257.9154 55.6686668395996
258.1100 149.574584960938
258.8100 53.6054420471191
258.9940 182.232971191406
260.0600 746.592956542969
260.8543 98.6691131591797
261.0400 383.403106689453
261.2700 33.1114692687988
262.0300 555.658264160156
262.1000 1666.21301269531
263.0000 387.031982421875
263.1200 857.064758300781
264.1000 4559.93896484375
264.8700 34.3389854431152
265.0100 118.718696594238
265.1200 851.481018066406
265.8900 33.674072265625
266.0000 29.2009372711182
266.1400 125.817054748535
266.3100 25.9557361602783
266.8417 78.4137725830078
266.9750 112.099426269531
267.8600 40.8596649169922
268.7000 29.2955570220947
268.9000 45.2404937744141
269.0228 43.7181243896484
269.7500 19.3516521453857
270.0091 6.31791400909424
270.2000 13.7248115539551
270.9300 337.046142578125
271.0671 64.2238616943359
272.0000 191.167678833008
272.9329 166.724548339844
273.0800 104.934791564941
273.8389 85.4415740966797
274.0354 224.390075683594
274.1300 158.565292358398
274.4400 45.8188133239746
274.8000 333.36572265625
275.0980 63.4918060302734
275.6900 18.988561630249
275.9000 155.590393066406
276.0400 446.848052978516
276.2900 31.5872344970703
276.9156 299.533447265625
277.0419 151.356094360352
278.1100 4761.03515625
278.9019 149.142333984375
279.0487 574.893249511719
279.1300 491.676025390625
279.8899 23.5443916320801
280.0400 117.347679138184
280.1500 40.7200469970703
280.7500 55.0140190124512
280.9128 123.009246826172
281.9000 12.9784660339355
282.0433 52.6333465576172
282.8000 33.1711616516113
282.9970 70.716796875
283.1300 18.3689060211182
284.9205 176.028137207031
285.0464 244.711303710938
285.7600 25.6757125854492
285.9433 72.1420135498047
286.0568 131.356903076172
286.8027 36.0782012939453
286.9147 133.59049987793
287.0787 54.5023193359375
287.9500 281.832733154297
288.0800 242.354568481445
288.8380 91.3063354492188
288.9831 877.559020996094
289.8371 87.1835327148438
289.9980 502.063934326172
290.2400 42.2181587219238
290.8992 145.188690185547
291.0746 253.582168579102
291.4100 17.4124927520752
291.9970 395.554473876953
292.1700 274.786956787109
292.9531 1164.77026367188
293.9542 431.440307617188
294.8600 242.055755615234
294.9876 69.3537063598633
295.8700 69.3013687133789
296.7158 32.865650177002
296.8985 85.6508026123047
297.0147 259.360473632813
297.8685 152.895385742188
298.2100 17.3876209259033
298.7687 8.64078521728516
298.8800 129.448379516602
299.8300 26.6140575408936
300.0000 51.9097290039063
300.9388 66.2256774902344
301.1300 70.5178298950195
302.0000 90.6241455078125
302.7711 28.8475112915039
302.9423 140.572601318359
303.1400 141.927612304688
304.0500 205.550903320313
304.1200 256.520111083984
305.0564 175.119369506836
305.9300 25.5460052490234
306.0500 84.833381652832
306.1700 1266.16320800781
306.8900 40.8620681762695
307.0210 455.977661132813
307.1400 117.032897949219
308.0670 17.2871494293213
308.2800 15.6333084106445
308.8800 14.575873374939
309.9600 26.9047985076904
310.8067 20.1449031829834
311.0031 128.346939086914
311.0900 108.139190673828
311.8800 12.7434911727905
312.9600 13.9584159851074
314.6800 29.0653076171875
314.9212 85.292236328125
315.0576 89.407585144043
315.1700 20.2387943267822
316.0000 104.381446838379
316.1300 157.701309204102
317.1400 976.742126464844
317.2600 33.7804565429688
318.0900 365.645111083984
318.1800 394.805572509766
319.1600 3549.8486328125
320.0700 200.504196166992
320.1600 823.089050292969
320.2800 189.084228515625
320.9100 21.5283794403076
321.1500 187.885818481445
322.9500 16.7722759246826
323.1200 14.1697340011597
326.7225 9.19125270843506
326.9800 43.541187286377
327.2900 15.9890699386597
328.9300 36.2772750854492
329.1800 15.9731216430664
329.9500 15.7171859741211
330.0800 19.1159801483154
330.2100 18.8948230743408
330.7900 24.3674755096436
330.9000 66.9099807739258
331.0300 50.2103691101074
331.7100 17.2201633453369
332.0700 33.942195892334
332.1800 61.708667755127
332.8600 36.3125076293945
332.9800 20.0696067810059
333.1700 629.959838867188
334.0300 128.93830871582
334.1500 645.263977050781
335.1700 29810.2734375
336.0800 276.8232421875
336.2000 7066.28857421875
337.1200 1143.13098144531
338.0700 81.7739410400391
338.1800 27.0047359466553
338.8400 16.5254878997803
341.1800 15.1492795944214
343.0000 14.6721296310425
344.8100 51.1773262023926
344.9400 33.0992279052734
345.1200 34.1192359924316
347.0100 118.628456115723
347.1600 35.541934967041
348.0700 37.1797828674316
348.8200 60.3723258972168
348.9900 192.688522338867
349.1500 158.077865600586
350.0000 16.8090114593506
350.7000 13.5226716995239
350.9900 118.768943786621
352.8900 75.9134902954102
353.0200 107.224060058594
353.7700 12.8970861434937
354.0300 13.4544525146484
357.0600 15.3319311141968
359.1800 15.8715105056763
362.8700 15.1632699966431
363.1300 13.0243339538574
367.0200 94.7036514282227
370.9300 67.6017379760742
371.0000 29.33762550354
384.9200 15.3030271530151
394.9100 14.5081377029419
401.0061 2.35617065429688
404.9600 36.2575798034668
