#"+EI Scan (rt: 4.526-4.602 min, 14 scans) R3M1.D  Subtract "
#Point,X(Thompsons),Y(Counts)
40.0653 20.6708984375
41.0670 2891.12817382813
41.9200 58.1398849487305
42.0545 164.298812866211
43.0500 445.93994140625
43.9000 113.891899108887
43.9905 69.574462890625
44.8400 67.6999130249023
44.9600 303.8232421875
47.0100 219.446624755859
48.8400 13.2860822677612
49.9885 171.419021606445
50.1000 83.1566009521484
50.8900 70.2212371826172
51.0137 337.338806152344
51.9100 95.0046768188477
52.0579 40.0734558105469
52.9600 384.043884277344
53.8900 83.6441192626953
54.0892 7.43181610107422
55.0041 377.227722167969
55.9313 26.2283325195313
56.2400 14.40283203125
57.0791 1362.06945800781
57.8100 28.4120044708252
57.9400 161.385101318359
58.2100 21.4881839752197
59.0305 788.029296875
59.9500 176.66259765625
60.0700 114.780906677246
60.8900 99.9167404174805
61.0100 35.8069725036621
61.8906 7.37478637695313
62.0500 211.219284057617
62.1600 38.83251953125
63.0400 716.617614746094
63.9100 23.7622966766357
64.0174 99.3160705566406
64.1400 16.243968963623
64.8657 120.017868041992
65.0000 164.860092163086
65.7100 14.693549156189
65.8300 22.2315158843994
65.9600 57.6563835144043
66.0800 37.9319381713867
66.8300 16.7008018493652
67.1100 65.5514297485352
67.9200 11.9872484207153
68.0800 38.8645553588867
69.0000 182.984252929688
69.8900 16.7809505462646
70.1400 30.4933414459229
70.8500 11.4406366348267
71.0600 111.502128601074
71.8200 16.7499828338623
72.0300 41.4193420410156
72.1300 11.9013614654541
72.2600 14.7298030853271
73.0479 755.003173828125
73.9400 318.795166015625
75.0015 1144.40393066406
76.0100 650.002380371094
76.1010 101.474609375
77.0341 4059.2587890625
78.0157 599.89892578125
79.1300 179.684463500977
79.8600 34.5385475158691
80.1000 15.3741674423218
80.2200 49.4525680541992
80.9000 234.266799926758
82.0300 133.305892944336
82.1800 18.0944404602051
82.9200 266.221649169922
83.1700 31.1458587646484
83.7500 15.6227569580078
83.9400 16.9813480377197
84.9700 285.083190917969
85.8400 82.4365386962891
85.9600 52.3516845703125
86.0900 29.3107089996338
86.8700 66.1340713500977
86.9900 476.557464599609
87.7500 56.520751953125
87.8900 73.9752655029297
88.0500 617.130981445313
88.8900 78.4944000244141
89.0000 2054.73046875
89.8500 150.315551757813
89.9455 225.260971069336
90.0500 181.96662902832
90.1700 40.6552047729492
91.0000 424.058502197266
91.1500 23.8348846435547
91.8200 12.4318189620972
91.9300 12.0196475982666
93.1400 28.0571327209473
93.7400 20.0926570892334
93.8300 40.2468070983887
93.9900 90.727668762207
94.2600 40.7574806213379
94.5500 36.4515113830566
94.7752 1.77681732177734
94.9900 142.168884277344
95.7800 34.1552772521973
96.0200 116.36043548584
96.1300 36.6685485839844
96.7300 90.8147583007813
96.9200 143.176742553711
97.9100 116.536392211914
98.0700 121.705390930176
98.8400 83.4312896728516
99.0000 183.52668762207
99.1400 67.6311187744141
99.9300 176.759384155273
100.0800 149.342330932617
100.2300 14.9741907119751
101.0300 2362.72265625
101.9453 236.775268554688
102.0600 1951.47521972656
102.9995 782.2763671875
103.8700 58.7256889343262
104.0700 198.898635864258
104.7900 30.7663822174072
104.9000 55.1740112304688
105.0000 105.054481506348
105.8400 68.2390518188477
105.9500 45.9113998413086
106.1900 66.0186538696289
106.3700 29.5434856414795
106.5500 40.8390693664551
106.7500 138.888580322266
106.9000 164.768646240234
107.2400 21.2481708526611
107.6000 32.4813613891602
107.7800 45.9141502380371
108.2400 63.6557807922363
109.0032 687.1533203125
109.7800 45.2533912658691
109.8800 20.3038063049316
110.1500 77.2718963623047
110.9900 55.2331695556641
111.1600 21.6992855072021
111.6400 39.3528175354004
111.8500 116.425537109375
111.9900 10.7890024185181
112.1700 101.296081542969
112.4600 13.2647733688354
113.0500 843.881225585938
113.7100 28.934741973877
113.9100 264.603393554688
114.0200 777.118225097656
114.2000 17.6791820526123
115.0322 2059.7548828125
115.1200 237.302322387695
115.7600 44.378044128418
116.0086 4431.1845703125
117.0015 1085.29321289063
117.8800 76.4710311889648
117.9400 99.90771484375
118.0600 127.587707519531
118.8134 82.3086471557617
119.0100 204.892044067383
119.1700 30.5515174865723
119.4600 76.9241790771484
120.0600 66.6634368896484
120.2300 48.7179069519043
120.4600 364.776885986328
120.5900 233.71321105957
120.9500 26.8705959320068
121.0500 253.613677978516
121.4600 20.8550510406494
121.8900 83.0699462890625
122.0800 27.2483215332031
123.0001 84.3795623779297
123.7700 87.7149658203125
123.9500 46.9108810424805
124.3100 11.0708055496216
124.7700 50.1123466491699
124.8852 8.51461791992188
125.0300 303.042877197266
126.0388 4087.77197265625
127.0367 18991.287109375
128.0200 5572.06005859375
128.1200 108.814041137695
128.9938 2185.45874023438
130.0192 1861.88696289063
130.8500 141.160354614258
131.8800 163.990463256836
132.0700 42.5251388549805
132.2700 22.4294681549072
132.9345 123.2041015625
133.1100 134.065414428711
133.6400 46.6484451293945
133.7900 48.3949012756348
133.9400 49.9404563903809
134.0414 14.7501983642578
134.2600 67.9808731079102
134.8700 53.2632827758789
134.9800 956.004211425781
135.5800 54.2327079772949
135.6900 104.94376373291
135.9000 88.5386123657227
136.0855 73.8697814941406
137.0100 1952.419921875
137.9000 249.316970825195
138.0058 558.50927734375
138.9908 828.770751953125
139.7500 11.2584638595581
139.9519 234.505905151367
140.0900 55.1158256530762
141.0400 1662.49987792969
141.5100 337.074981689453
141.6900 447.731140136719
141.9825 211.019500732422
142.1100 43.3282775878906
142.9700 753.015258789063
143.0848 334.067138671875
144.0184 10209.91015625
144.9100 169.131057739258
145.0300 1265.34143066406
145.7600 22.5830726623535
145.9600 116.308128356934
146.1200 46.7823677062988
146.7400 49.0946159362793
147.0100 97.1929473876953
148.0000 134.921829223633
148.4900 17.3892135620117
148.6000 42.0811157226563
148.8000 179.092163085938
148.9100 20.0432300567627
149.0439 38.4369125366211
149.9000 146.191146850586
150.0300 194.672470092773
150.9890 547.085327148438
151.7800 28.5427589416504
151.9816 54.1898803710938
152.1100 185.508499145508
152.8600 31.5669956207275
153.8800 18.0192012786865
153.9800 483.715393066406
154.0871 42.1183319091797
155.0179 6502.8583984375
156.0086 1224.41625976563
156.8800 195.854568481445
157.0068 271.673217773438
157.9391 181.337448120117
158.0800 266.987152099609
158.9749 286.17041015625
160.0100 475.512145996094
160.9292 403.038208007813
161.8400 71.0684280395508
162.0200 120.549819946289
162.9152 416.637268066406
163.5800 101.47974395752
163.7100 74.4829025268555
163.8500 231.607391357422
164.1100 99.7197418212891
164.7900 30.6076259613037
165.2300 19.1546573638916
165.8300 34.8156318664551
166.0300 93.6384048461914
166.9946 3433.47387695313
167.8000 43.9951057434082
167.9300 547.220642089844
168.0500 188.306121826172
168.8400 121.474647521973
169.0600 41.4317321777344
169.7300 24.2172088623047
169.8900 88.756233215332
170.0100 475.078887939453
170.1260 13.2130432128906
170.8300 247.489044189453
171.0500 209.949920654297
171.7700 23.8739414215088
171.9000 11.6935720443726
172.0400 584.840148925781
172.8500 151.483047485352
173.9000 70.6983947753906
174.0200 86.7447128295898
174.8100 52.5929489135742
174.9300 74.9082412719727
175.1000 33.3330764770508
175.2500 13.2170314788818
175.8900 122.997032165527
176.0800 61.4050788879395
177.0400 189.0673828125
177.9000 26.5973167419434
178.0300 133.597320556641
178.7900 94.7647552490234
179.7900 100.472480773926
180.8500 290.795745849609
181.8600 38.0758857727051
181.9800 107.995903015137
182.0700 40.8937606811523
182.7700 68.0912246704102
182.9617 142.310485839844
183.9000 132.951766967773
184.0700 126.398323059082
184.7800 49.6607856750488
184.9800 305.977264404297
185.9252 150.51806640625
186.1600 40.3059463500977
186.7800 31.2202091217041
186.9100 230.605621337891
186.9818 183.392517089844
187.7700 16.5913124084473
187.8900 205.369247436523
188.0100 238.658599853516
189.0000 513.393371582031
189.6500 30.1804542541504
189.8200 30.0213146209717
189.9200 62.343635559082
190.0800 94.5666351318359
190.8391 70.3746643066406
190.9800 222.850799560547
191.6400 11.5174789428711
191.8800 107.705497741699
192.8590 61.1347961425781
192.9400 412.795349121094
193.7700 17.4675483703613
193.9100 110.631820678711
194.0200 74.1929168701172
194.8000 79.0435791015625
195.0200 265.305389404297
195.8700 85.8584976196289
195.9340 48.0372467041016
196.9299 380.04052734375
198.0000 174.89387512207
198.8327 135.14404296875
198.9410 324.3310546875
200.1000 15895.6025390625
201.0600 2637.90869140625
201.8874 141.823303222656
202.1000 190.380737304688
202.7600 36.4793357849121
203.0600 68.9607696533203
203.7900 50.7397537231445
204.0100 87.8458099365234
204.9600 165.505401611328
205.1600 11.4482583999634
205.8600 48.2478408813477
206.0300 59.5541725158691
207.6500 12.6084909439087
207.7800 15.7488565444946
207.9499 106.743576049805
208.2900 16.9844875335693
208.7900 54.8227272033691
208.9100 74.5592803955078
209.2800 14.5948581695557
209.6700 22.8325786590576
209.8600 35.61328125
210.1400 18.8677272796631
210.9753 550.1650390625
212.0500 4218.1953125
213.0400 3072.83447265625
214.0673 1292.84790039063
214.9846 1934.673828125
215.9000 497.590759277344
215.9800 193.740234375
216.9385 732.85546875
217.9766 49.5046997070313
218.1100 48.8647270202637
218.9263 525.77783203125
219.7000 21.6409130096436
219.7900 137.480560302734
220.0800 18.2460670471191
220.8800 133.430877685547
220.9569 89.8916320800781
221.1000 18.183557510376
222.0100 48.4648017883301
222.7754 31.4337615966797
222.9547 11.8949584960938
223.9351 105.014366149902
224.1300 116.928207397461
224.7000 40.1102714538574
224.9873 125.517578125
225.0700 181.110809326172
225.8500 47.1705322265625
226.0200 724.751159667969
226.1300 125.900863647461
226.9670 89.3273315429688
227.0600 482.839324951172
227.9400 344.711090087891
228.0900 185.121932983398
228.1900 25.6221714019775
228.9200 83.1899108886719
229.0692 29.0291748046875
229.7700 13.48766040802
229.9500 231.106842041016
230.5800 15.7400121688843
230.7400 55.571475982666
231.0000 120.51139831543
231.8800 57.6036682128906
232.1600 38.6546440124512
232.9900 955.12158203125
234.0400 480.306701660156
234.9510 512.87255859375
235.7000 18.919116973877
235.9301 73.6164321899414
236.0800 11.5532102584839
236.9608 1073.77880859375
238.0000 823.399658203125
238.9718 389.733032226563
239.0900 203.131317138672
239.9754 583.906982421875
240.0508 1335.78723144531
240.9969 796.256713867188
241.0600 3437.80859375
242.0300 1429.671875
242.1100 985.430297851563
242.7400 16.4941463470459
242.9600 90.3221893310547
243.1000 369.060729980469
243.9600 62.9087524414063
244.0800 52.3523559570313
244.2000 15.3900060653687
244.7600 55.525146484375
246.9200 48.6791191101074
247.0500 25.0632495880127
247.8900 19.3221397399902
248.6700 35.3290824890137
248.8300 56.0858764648438
249.1300 30.7727947235107
249.8600 13.7862958908081
250.0900 13.5650510787964
250.8400 24.6074733734131
250.9500 143.457412719727
251.0300 187.09114074707
251.1400 60.3978538513184
251.6100 11.3652696609497
251.7900 18.0911769866943
251.9600 229.797393798828
252.1400 117.502868652344
252.8500 149.237838745117
253.0085 587.201232910156
253.1505 280.796752929688
254.0000 104.905891418457
254.0800 3217.24047851563
255.0700 1854.23986816406
256.0800 1882.99389648438
256.9200 208.395431518555
257.0400 457.295440673828
257.1900 12.8195104598999
258.0500 27.2054080963135
258.1500 12.1949005126953
258.8100 91.5683441162109
258.9900 27.7159023284912
260.9700 23.8326721191406
261.9800 37.0052680969238
262.6900 13.2528676986694
263.8800 48.8600769042969
264.1100 36.947078704834
264.7300 61.4443702697754
264.8400 20.0894336700439
265.0514 135.805480957031
265.8600 44.6837577819824
266.0000 214.249923706055
266.0800 627.596984863281
266.8800 37.9692687988281
267.0100 423.543670654297
267.0753 476.713256835938
267.2100 32.1332588195801
268.0300 659.423950195313
268.1400 198.687545776367
268.9500 337.205993652344
269.0707 1656.24633789063
270.0700 7152.56982421875
270.8200 68.7927169799805
270.9341 158.501678466797
271.0600 1275.96203613281
271.9100 179.100112915039
272.0000 212.936447143555
272.6600 31.0223999023438
272.7800 77.5671920776367
272.9568 123.959106445313
273.6600 12.4378652572632
273.7800 18.4705047607422
273.9000 37.5265998840332
274.0300 70.1555252075195
274.9500 392.562591552734
275.7300 12.7741289138794
275.9000 50.6052360534668
276.7600 77.6412963867188
277.0100 106.211074829102
277.7800 13.8683757781982
277.9100 96.9390258789063
278.0300 27.1699867248535
278.1900 19.1926517486572
278.7900 121.437545776367
279.5500 18.0820007324219
279.9800 219.142379760742
280.1400 166.173706054688
281.0062 75.5084609985352
281.1600 101.338973999023
281.9900 500.618560791016
282.1900 44.2495193481445
282.3300 21.1697387695313
282.8900 112.375480651855
283.0000 214.949493408203
283.0800 479.825347900391
284.0900 11769.076171875
285.0173 612.346435546875
285.1100 2097.22924804688
285.8400 78.6380233764648
286.0000 469.042022705078
287.0300 86.8864059448242
287.9600 11.6584119796753
288.9737 174.998046875
289.6800 25.6894931793213
290.0095 10.7023620605469
290.1100 28.1484336853027
290.8900 205.026901245117
292.8800 321.597320556641
293.9700 553.464294433594
294.8300 182.79377746582
295.8700 29.3979644775391
296.0400 133.981536865234
296.1600 44.5968933105469
296.4900 18.8116340637207
296.9000 116.578407287598
297.1100 98.3924407958984
298.0000 282.552520751953
298.1600 214.157577514648
298.8800 32.4938850402832
299.0176 186.949432373047
299.1900 89.1024856567383
299.7200 14.2006664276123
299.9300 42.3358993530273
300.6100 36.1959800720215
301.0700 10.9786977767944
301.8600 11.6755657196045
302.7200 29.5570411682129
304.8700 54.4307327270508
305.0000 17.0234470367432
306.0400 12.3046245574951
306.6500 11.1896638870239
306.9500 159.639175415039
307.1100 43.1037101745605
308.0200 357.74609375
308.1600 365.466217041016
308.8200 13.8873424530029
308.9700 140.145202636719
309.1000 106.512794494629
310.1414 9061.79296875
310.8800 28.1715431213379
311.0117 308.189300537109
311.1100 2033.00183105469
311.2500 29.1255645751953
311.9800 101.347717285156
312.1200 338.864837646484
312.2200 50.8818092346191
312.9000 60.8945503234863
313.0400 50.4890518188477
314.8500 29.4235343933105
315.9800 11.9161748886108
316.9900 20.5166816711426
319.0000 35.6418952941895
319.2800 41.7791175842285
322.1300 11.4471588134766
323.2300 12.870641708374
323.8900 46.9338722229004
324.0700 115.922325134277
324.1700 27.2682323455811
324.3000 48.7354507446289
324.4200 11.0531139373779
324.9200 26.2523765563965
325.0800 113.064758300781
325.2000 29.543643951416
326.1295 8806.7158203125
327.1486 18994.30859375
328.1500 4588.0986328125
328.9800 165.488357543945
329.1000 280.472442626953
329.2400 221.1572265625
330.1500 26.9484577178955
331.1000 33.3263511657715
332.9000 20.1590442657471
333.7400 15.7041034698486
334.9400 23.1161079406738
341.0200 40.2469749450684
341.1300 59.559326171875
341.2700 35.9574241638184
342.2300 14.4857025146484
348.8800 54.0638008117676
349.1000 35.4487037658691
350.7800 11.4207487106323
351.0700 12.4774532318115
352.8100 33.5278968811035
352.9500 52.7833862304688
363.0200 31.0028381347656
366.9800 48.2267456054688
367.1700 10.9321870803833
370.9500 17.6003971099854
400.9900 20.0681419372559
483.0700 11.0309314727783
