#"+EI Scan (rt: 5.138-5.226 min, 16 scans) R1M1.D  Subtract "
#Point,X(Thompsons),Y(Counts)
40.0900 2529.31469726563
41.0694 60472.41796875
42.0696 7669.2470703125
43.0800 15957.0712890625
44.0270 5142.31689453125
44.9786 366.674224853516
45.9200 176.004776000977
46.0700 312.656402587891
47.0457 8412.806640625
48.0100 179.776657104492
48.8900 54.8033790588379
49.0000 180.374664306641
50.0083 1126.93322753906
51.0137 4303.13916015625
52.0100 1424.0625
52.0600 966.19140625
53.0594 12316.30859375
54.0600 6057.22021484375
55.0605 23271.931640625
56.0483 6741.48828125
57.0606 6635.43896484375
58.0709 6439.1171875
59.0437 6243.1884765625
59.8700 22.8125076293945
59.9900 490.025543212891
60.0512 75.4205017089844
61.0400 2846.40576171875
61.9879 1539.71313476563
62.0600 405.206024169922
63.0176 4341.3515625
64.0200 2322.37817382813
65.0400 11137.03515625
66.0500 8163.19287109375
67.0497 34635.140625
68.0800 6231.7529296875
69.0692 34808.50390625
70.0800 4685.71533203125
70.7800 18.4539833068848
70.9900 434.200134277344
71.1600 115.673568725586
71.3700 12.9487438201904
71.8300 47.6909942626953
71.9600 147.9892578125
72.1100 226.654571533203
72.2200 43.1224365234375
73.0371 2808.12475585938
73.9359 61.2213287353516
74.0430 870.260314941406
75.0187 4212.041015625
76.0434 8436.85546875
77.0372 58274.8203125
78.0333 16012.287109375
79.0591 58257.796875
80.0498 13664.322265625
81.0415 18497.826171875
82.0500 5743.3349609375
82.9700 463.113098144531
83.0500 1260.26232910156
83.6500 25.3257007598877
83.9700 341.232513427734
84.1000 251.8583984375
84.9700 492.379577636719
85.0779 509.668121337891
85.8600 34.9011383056641
86.0000 307.497924804688
86.1100 172.051330566406
86.8800 35.4117851257324
87.0215 856.79443359375
87.0700 911.648132324219
88.0300 20086.845703125
89.0381 23517.671875
90.0301 51453.140625
91.0492 66119.2734375
92.0700 54980.84375
93.0600 93771.171875
94.0600 52407.640625
95.0500 5222.9111328125
95.0933 3333.61401367188
96.0600 2706.94848632813
96.9500 374.406188964844
97.0472 361.428131103516
97.5700 16.1828231811523
97.7100 29.3557014465332
97.9500 195.267196655273
98.2400 42.9156112670898
98.5900 15.7527990341187
98.9200 161.84619140625
99.1100 167.223480224609
99.8200 33.0470428466797
99.9800 293.074279785156
100.1600 74.4217987060547
100.8200 33.9248924255371
100.9500 418.732299804688
101.0800 1728.28039550781
102.0300 22536.181640625
103.0295 56289.6171875
104.0400 25247.6875
104.9289 108.085952758789
105.0497 18326.142578125
106.0600 12561.169921875
107.0602 21227.24609375
108.0700 22158.880859375
109.0520 13007.7890625
110.0789 2208.56762695313
110.8500 207.356872558594
110.9830 109.025268554688
111.1500 384.199615478516
111.4300 51.8484916687012
111.6800 100.046798706055
111.9800 69.7050170898438
112.1100 23.464563369751
112.6800 146.975463867188
112.8900 273.948455810547
113.1900 25.9453125
113.9300 278.655822753906
114.0700 525.564514160156
115.0220 4569.6259765625
116.0406 7332.6171875
117.0279 31397.205078125
118.0300 10800.04296875
119.0491 13218.5400390625
120.0400 8077.44287109375
120.9525 64.7966766357422
121.0400 4071.1455078125
121.9800 897.436645507813
122.0500 1143.8720703125
123.0290 1019.01977539063
123.8100 40.9021072387695
124.2100 22.0619564056396
124.9074 482.176147460938
125.1100 3013.00756835938
125.3500 333.187561035156
125.4700 1401.36694335938
125.6000 1527.14794921875
126.0497 114.740104675293
126.1700 15.3520584106445
126.8834 147.715942382813
126.9986 1506.3955078125
128.0400 4885.21875
129.0298 31215.66015625
130.0496 23292.294921875
131.0499 121637.6796875
132.0500 19974.685546875
133.0700 10505.0458984375
134.0300 457.369873046875
134.1000 9892.66796875
135.1000 77084.71875
136.0999 21074.921875
137.0136 14260.953125
137.9936 1333.23999023438
139.0000 1073.39294433594
139.7400 73.51513671875
139.9225 350.175659179688
140.0800 236.484024047852
140.1800 50.4885025024414
140.9768 1320.5869140625
141.9000 131.331893920898
142.0321 2729.3994140625
143.0500 8297.4931640625
144.0600 20069.40234375
145.0301 340183.15625
146.0400 33844.4921875
146.9519 403.778015136719
147.0600 3140.439453125
148.0600 1885.916015625
148.1300 725.4638671875
149.1000 7786.8662109375
150.1200 180975.09375
151.1100 21607.29296875
152.0000 200.895919799805
152.0700 1363.02160644531
152.1400 337.043731689453
152.9916 107.596313476563
153.1500 596.677062988281
153.5000 232.948333740234
153.7700 650.468566894531
153.8500 375.361297607422
153.9900 634.816955566406
154.1400 173.690399169922
154.9893 4098.4912109375
156.0394 8383.826171875
157.0700 9946.6044921875
158.0502 10546.5703125
158.9931 7804.984375
160.0400 2189.70581054688
161.0300 5649.23095703125
161.9600 198.536315917969
162.0900 1012.39276123047
163.0000 1022.4306640625
163.6400 16.1801815032959
163.9100 300.708801269531
164.0600 165.948638916016
164.8800 226.271362304688
165.0415 1004.84429931641
165.9700 334.770111083984
166.0700 314.272766113281
166.9613 1173.08276367188
167.9500 478.070434570313
168.0679 1198.64404296875
169.0358 2375.99975585938
169.1000 755.588500976563
170.0500 2385.90087890625
171.0504 13747.8291015625
172.0400 1936.41662597656
172.1000 1393.66357421875
172.9968 355.000152587891
173.0700 2146.87841796875
174.0600 38491.3515625
175.0500 12561.4013671875
175.9400 168.928283691406
176.0500 2276.72265625
177.0300 30000.099609375
177.9700 465.330688476563
178.0400 3013.81274414063
178.8900 79.2035064697266
178.9900 531.361328125
179.1500 151.774047851563
179.9600 355.899536132813
180.0679 617.970642089844
181.0200 1387.17248535156
181.9200 89.4826965332031
182.0100 774.997375488281
182.1100 269.316436767578
182.9059 115.730178833008
183.0479 2155.96362304688
183.8500 87.0302734375
184.0200 463.519256591797
184.0800 1750.35192871094
185.0800 10907.158203125
186.0700 5372.36279296875
186.9000 228.288955688477
187.0600 2561.47900390625
187.9400 157.568603515625
188.0700 436.8046875
188.2300 45.3954238891602
188.9400 470.863159179688
189.1400 58.3338317871094
189.8000 55.9201965332031
189.9500 143.44660949707
190.0400 429.894226074219
191.0084 1322.17712402344
191.1200 91.044921875
191.8400 28.1996955871582
191.9400 209.780014038086
192.0775 369.056762695313
192.9866 451.834625244141
193.1000 262.601440429688
193.9524 343.616088867188
194.0700 287.277374267578
195.0200 1682.29052734375
195.9428 135.979919433594
196.0700 810.19482421875
196.8712 157.914733886719
196.9824 486.996765136719
198.0700 1033.39770507813
199.0500 4984.716796875
199.9700 125.508895874023
200.0700 2429.86108398438
200.9378 666.163818359375
201.0400 654.215209960938
201.8800 101.038703918457
202.0200 628.287353515625
202.9644 458.849609375
203.0600 1431.83251953125
204.0000 379.88916015625
204.0900 440.451171875
205.0800 3498.29833984375
205.9300 74.4788970947266
206.0400 480.15380859375
206.1300 1111.33325195313
206.3100 16.6133975982666
207.1180 15127.1533203125
207.9252 4.22044372558594
208.0771 1075.58215332031
208.1300 1582.1728515625
209.0549 1302.509765625
209.9500 187.27360534668
210.0744 1521.77355957031
211.0116 3100.40234375
212.0700 2663.4228515625
213.0988 37924.6953125
214.0943 6848.25439453125
214.9926 7357.6591796875
215.9782 1250.35815429688
216.9300 1003.96472167969
217.0015 222.108154296875
217.7600 53.7473831176758
218.0600 405.247283935547
218.1500 119.807945251465
219.0043 4427.63671875
220.1400 46381.83203125
221.1200 8078.35400390625
222.0300 504.261291503906
222.1200 1855.8095703125
222.8900 428.384338378906
222.9648 434.409484863281
223.0900 412.915618896484
223.6900 29.4625606536865
223.8600 17.5689792633057
223.9700 142.927062988281
224.1000 695.134521484375
224.8200 59.2380828857422
224.9467 64.2414245605469
225.1200 334.717376708984
225.8800 22.8499488830566
226.0676 841.397216796875
226.7200 37.0621223449707
227.0045 330.098327636719
227.1275 172.557861328125
227.7100 22.8463687896729
227.8200 12.1497020721436
227.9700 31.2584857940674
228.1000 1067.21716308594
228.1900 33.9994812011719
229.0500 1188.40222167969
229.7700 73.451545715332
230.0300 544.826049804688
230.1400 323.0703125
231.0900 4380.21630859375
232.1000 6634.17236328125
233.1082 398747.625
234.1100 62356.3828125
235.0740 5959.15380859375
236.0006 265.869873046875
236.1100 1356.25708007813
236.9800 3620.5390625
238.0278 2621.8583984375
238.0900 2082.74072265625
239.0086 1441.68054199219
239.1300 140.655532836914
239.7800 23.4773349761963
240.0200 307.136779785156
240.1200 144.69450378418
240.9588 175.277526855469
241.0700 255.928436279297
242.0000 226.17822265625
242.1300 27.507303237915
242.2900 9.81362247467041
242.7400 13.7863683700562
242.9300 167.513610839844
243.7700 15.7881317138672
243.9100 10.0237894058228
244.0800 76.3136520385742
244.1800 47.8401031494141
244.9049 77.0825119018555
245.0200 233.516632080078
245.1600 279.532501220703
246.0000 157.669311523438
246.1100 896.876770019531
246.2300 48.3581008911133
246.9300 45.2862548828125
247.1300 1373.29821777344
248.0800 1120.66259765625
248.1500 1501.74438476563
249.1300 5190.013671875
250.1100 5338.75830078125
250.9964 301.590026855469
251.1200 3142.921875
252.1200 2191.11694335938
252.2100 113.389602661133
253.0297 323.422912597656
253.1400 183.138366699219
253.8400 11.7828722000122
254.0100 288.321502685547
254.1500 51.0306129455566
254.8700 165.065582275391
255.0100 166.570587158203
255.8700 46.0396995544434
255.9800 10.8395977020264
256.1800 55.9792556762695
257.1100 1138.64282226563
257.9000 20.4801044464111
258.0300 131.736785888672
258.1200 929.384399414063
259.0000 223.424606323242
259.1100 1537.9580078125
259.8000 16.3317737579346
259.9200 185.93083190918
260.1500 1431.78881835938
261.0600 620.248413085938
261.1300 2150.06860351563
261.8800 11.6491460800171
262.0400 16.9546070098877
262.1600 1159.23828125
263.1200 3123.39770507813
264.0400 100.539878845215
264.1400 1028.60729980469
264.2100 153.036911010742
265.1600 8787.24609375
266.1500 2940.05322265625
266.9000 27.5787315368652
267.1059 618.930358886719
267.2200 54.7059936523438
267.8500 12.5507888793945
268.0300 146.112884521484
268.1800 133.822845458984
268.9856 89.2146911621094
269.0800 92.5607223510742
269.9600 396.768493652344
270.1200 652.158264160156
270.4300 15.8564949035645
271.0154 953.735107421875
271.1600 221.430511474609
271.8300 13.4088888168335
272.0000 296.044921875
272.0900 310.784790039063
272.1500 498.641174316406
273.0700 1110.89306640625
273.6900 16.195951461792
273.9383 196.373519897461
274.0900 213.448272705078
274.2100 152.825637817383
274.9015 56.2446899414063
275.0300 375.385467529297
275.5600 9.9894495010376
275.8000 45.3796920776367
275.9200 51.4276428222656
276.0600 489.366821289063
277.0030 311.997253417969
277.1200 1861.88708496094
278.1000 1117.60205078125
278.1800 837.84716796875
278.9000 68.3178100585938
279.0767 328.831787109375
279.1800 1021.79754638672
280.1100 1391.38159179688
280.1900 2481.390625
280.9200 92.2377777099609
281.1047 1462.84606933594
281.8800 29.783992767334
282.0700 274.791168212891
282.2000 162.617263793945
283.1000 785.300659179688
283.1800 445.89306640625
284.0900 480.464660644531
284.1900 778.685241699219
284.4900 22.7730236053467
285.0462 829.011596679688
285.1500 105.421295166016
286.1200 424.887939453125
286.1900 191.89111328125
286.9900 358.894317626953
287.1300 1251.29992675781
288.1600 7704.53173828125
289.1300 11437.4541015625
290.1400 5964.71826171875
291.0295 671.468566894531
291.1300 854.525207519531
292.0400 416.580688476563
292.1600 352.176452636719
293.0300 2973.71826171875
294.1600 187080.484375
295.1600 41074.5078125
296.1500 5078.1162109375
297.0400 681.05615234375
297.1300 4352.41796875
298.1700 78626.3671875
299.1700 19128.859375
299.9800 43.7219734191895
300.1300 1628.59704589844
300.2100 1186.08557128906
300.9200 134.959915161133
301.0800 186.507781982422
301.1900 226.936157226563
301.8700 28.531909942627
301.9700 99.5506286621094
302.0900 43.2275848388672
302.9100 70.5267028808594
303.0900 384.658416748047
303.8700 11.7369270324707
304.0600 138.821853637695
304.1800 110.196441650391
304.7400 29.2223739624023
304.8400 45.5738754272461
305.0000 164.41975402832
305.1900 180.932037353516
306.0100 204.557586669922
306.1100 593.477966308594
306.2300 148.789825439453
307.0537 279.455780029297
307.1400 521.517333984375
308.1800 13779.044921875
309.1600 5064.65771484375
310.0000 171.808563232422
310.1500 603.00439453125
310.2200 437.453308105469
311.0300 566.365478515625
311.1700 103.032180786133
312.0100 53.2095108032227
312.1800 2841.34985351563
313.0900 320.09521484375
313.1800 1232.48132324219
314.0900 235.376907348633
314.1700 6407.107421875
314.9300 60.5165100097656
315.1800 2453.05419921875
316.0300 249.929000854492
316.1700 64.1824722290039
316.2500 158.263427734375
316.6200 15.6765594482422
316.9400 24.8296432495117
317.0900 108.477294921875
317.2100 81.858512878418
317.9800 19.1499252319336
318.1100 103.375335693359
318.2100 237.510833740234
318.8600 29.4438800811768
319.0100 111.104354858398
319.1000 219.880920410156
319.2100 84.8114776611328
320.0200 135.178619384766
320.1600 130.492965698242
320.2700 119.541610717773
321.1100 107.456176757813
321.3000 33.088752746582
322.0300 277.837554931641
322.2000 211.710464477539
323.0500 140.921752929688
323.1400 358.256652832031
323.2400 148.563140869141
323.3400 14.510064125061
323.8600 13.5546178817749
324.0900 206.784637451172
324.2100 143.078689575195
324.3600 10.9311676025391
325.0300 352.882995605469
325.1400 702.375549316406
326.1600 63217.02734375
327.1600 15938.033203125
328.1700 2520.43994140625
328.2500 652.017700195313
328.8000 10.9395914077759
329.0100 251.823913574219
329.1700 271.661468505859
329.3300 12.4404582977295
329.9900 21.0468330383301
330.6900 64.6312713623047
330.8500 48.7758865356445
331.1500 22.5199890136719
331.8500 16.1923694610596
332.5000 12.3459720611572
332.6800 15.5252685546875
332.9700 90.2531509399414
333.0900 51.7929916381836
334.0000 72.6615829467773
334.1800 188.461990356445
335.0400 44.0753364562988
335.1400 539.551818847656
335.2500 334.024566650391
336.0400 21.7212562561035
336.1500 531.360595703125
336.3400 66.3481521606445
337.1100 261.826538085938
337.2000 2245.93334960938
338.2200 68849.4609375
339.2300 23996.453125
340.2000 15252.9169921875
341.0400 105.425163269043
341.1700 576.140808105469
341.2200 2957.90185546875
342.0400 95.4194869995117
342.1900 4883.33349609375
343.1700 1229.6474609375
343.3300 160.154815673828
344.0500 55.7257270812988
344.1900 240.541870117188
344.3300 25.4929542541504
344.7700 15.3322925567627
344.8700 22.499662399292
345.0500 39.7282333374023
345.3000 22.526008605957
345.4600 13.2882509231567
345.9000 18.4995880126953
346.0500 44.5806999206543
346.2400 10.0037956237793
346.4800 12.0087547302246
347.1700 63.2541656494141
347.7900 10.2683458328247
347.9500 98.5381469726563
348.0900 17.2281112670898
348.2400 66.8276596069336
348.7800 9.84029579162598
348.9200 200.364852905273
349.7600 9.80578899383545
349.9200 34.9220085144043
350.0400 226.052139282227
350.2000 223.102874755859
350.6400 10.3793745040894
350.9500 65.5781021118164
351.0800 54.5312423706055
351.2000 119.778312683105
352.1500 23.694019317627
352.4700 23.2781372070313
352.5600 12.9059638977051
352.9900 145.83366394043
353.1300 143.388488769531
354.2400 8096.8212890625
355.2600 192280.59375
356.2600 48336.0625
357.2400 3532.42651367188
357.2900 2689.98291015625
358.1200 91.38916015625
358.2600 374.212280273438
358.3600 107.664970397949
359.1000 26.758810043335
362.0000 27.7574501037598
362.1900 505.280578613281
362.3600 74.9532165527344
363.0600 195.086227416992
363.2000 426.902160644531
363.2700 345.629302978516
363.6800 9.91451740264893
364.1200 180.543991088867
364.2400 292.936340332031
364.7500 14.3515319824219
364.9600 42.6929206848145
365.0800 86.5185852050781
365.2200 242.85139465332
365.3600 29.5861186981201
365.9400 40.254077911377
366.0600 18.3948669433594
366.1700 533.515441894531
366.2800 265.050994873047
366.7000 21.1110763549805
367.0200 230.027893066406
367.2200 337.213623046875
368.0300 50.1178245544434
368.1600 455.925140380859
368.2400 851.439697265625
369.0800 103.357559204102
369.2200 306.823333740234
370.0100 18.7120933532715
370.3200 9.66544532775879
370.4300 11.1928310394287
370.8300 37.3392944335938
371.0200 52.6871070861816
379.7900 12.033805847168
380.0900 17.3410148620605
381.0400 77.2989730834961
381.1600 83.7669982910156
381.2200 71.2852935791016
381.3500 24.6900463104248
382.2500 6190.64306640625
383.2600 128118.21875
384.2500 32865.02734375
385.2400 4540.3193359375
386.0700 59.6793823242188
386.2200 284.817047119141
386.3500 81.3147811889648
386.4700 21.2560443878174
386.9800 45.7656860351563
387.3000 11.5004205703735
387.4700 12.1760425567627
398.3800 30.3394622802734
401.0100 24.0560703277588
408.8300 41.2250061035156
410.7900 13.5361328125
423.9900 10.9238109588623
