#"+EI Scan (rt: 5.121-5.202 min, 15 scans) R8M1.D  Subtract "
#Point,X(Thompsons),Y(Counts)
40.0800 2996.2021484375
41.0694 60105.01953125
42.0700 7887.6005859375
43.0903 15197.318359375
44.0380 4254.71484375
44.8900 114.179786682129
44.9888 470.840576171875
45.1700 30.8870639801025
45.9100 95.9145889282227
46.0800 493.194152832031
47.0500 8971.6181640625
47.9000 77.1856460571289
48.0500 196.111846923828
48.8600 92.7975082397461
50.0092 1304.36779785156
51.0257 4677.3408203125
51.9500 291.064331054688
52.0400 1945.62463378906
53.0592 11986.2197265625
54.0500 6051.19287109375
55.0689 24363.20703125
56.0694 7188.0703125
57.0605 6024.9169921875
58.0718 6724.98046875
59.0370 8348.25
59.9578 355.822509765625
60.0553 348.972290039063
61.0500 2684.36401367188
62.0265 2068.98046875
63.0126 4198.11083984375
63.9321 153.952117919922
64.0400 1754.36694335938
65.0400 11213.5224609375
66.0300 8406.9404296875
67.0601 34383.71875
68.0600 6132.53564453125
69.0789 33825.046875
70.0000 757.180603027344
70.0800 3886.10375976563
71.0400 751.805358886719
71.1700 23.7928600311279
71.8900 92.6976699829102
72.0200 120.935005187988
72.1300 195.833053588867
72.2700 63.3618354797363
73.0371 3137.326171875
73.9400 281.821655273438
74.0300 661.369873046875
75.0160 4102.87646484375
76.0522 9180.69921875
77.0400 58725.59375
78.0437 16163.0576171875
79.0590 57917.046875
80.0592 13115.63671875
81.0503 19396.4765625
82.0700 5626.7353515625
82.9748 160.145401000977
83.0600 1414.69213867188
83.8700 79.8545074462891
84.0000 291.195770263672
84.0800 278.917999267578
84.9237 51.995849609375
85.0395 527.668579101563
85.9400 412.86474609375
86.1300 51.9181251525879
86.1900 64.0121307373047
86.9800 1406.90490722656
87.1071 453.526672363281
88.0300 19114.5859375
89.0398 22948.36328125
90.0300 50029.05859375
91.0600 66903.4765625
92.0600 53945.359375
93.0600 90335.5390625
94.0600 50732.83203125
95.0700 8677.2763671875
96.0290 2675.60668945313
96.1700 73.8837738037109
96.9820 573.657592773438
97.1100 217.919204711914
97.8400 71.427734375
98.0044 170.251541137695
98.1500 96.31005859375
98.6600 53.3851470947266
98.8500 14.2498769760132
98.9700 130.269729614258
99.1100 67.0515670776367
99.6800 64.292106628418
99.8200 90.1303863525391
99.9800 159.218704223633
100.1600 103.902503967285
101.0113 2203.03466796875
102.0201 21727.02734375
103.0400 56033.6953125
104.0300 25270.4453125
105.0600 18528.533203125
106.0600 12455.5244140625
107.0697 20176.13671875
108.0700 22038.771484375
109.0700 15029.6474609375
110.0546 2175.87817382813
110.8700 498.196746826172
110.9982 90.0318298339844
111.1600 104.803512573242
111.6000 227.3037109375
111.7600 78.8366546630859
111.9900 86.0610427856445
112.1200 22.8401660919189
112.2400 22.4355487823486
112.9544 63.7382965087891
113.0600 279.024200439453
113.1700 34.9735107421875
113.4900 12.9476165771484
113.7200 24.5546245574951
113.8400 59.6525917053223
113.9669 445.323699951172
114.1300 145.862777709961
115.0031 2005.97875976563
115.0600 2591.24584960938
116.0300 7106.51904296875
117.0400 31841.291015625
118.0500 10536.373046875
119.0590 12577.9375
120.0500 8004.060546875
121.0389 3824.61865234375
121.1100 261.276153564453
122.0500 1746.04125976563
122.1600 164.385635375977
123.0700 870.151428222656
123.7300 58.3034629821777
124.3000 46.4957885742188
124.5300 65.0316619873047
124.6500 180.394256591797
125.0300 843.650817871094
125.1100 1533.50549316406
125.2700 1021.95562744141
125.4400 779.987731933594
125.5500 961.432678222656
125.6600 569.336975097656
126.0800 241.17919921875
127.0121 1796.88623046875
128.0011 959.924194335938
128.0600 3564.55346679688
128.1700 257.676239013672
129.0300 30076.40625
130.0493 22293.810546875
131.0399 115611.234375
132.0502 18204.76953125
133.0700 10429.62109375
134.1000 10615.966796875
135.1097 70788.7578125
136.0998 20424.2890625
137.0102 15630.0947265625
138.0023 1802.76306152344
138.8900 339.623077392578
139.0061 615.1103515625
139.1400 119.561370849609
139.6900 67.3684387207031
140.0200 493.836456298828
140.7900 72.5972595214844
141.0000 1861.13000488281
142.0300 2565.49438476563
143.0606 8285.20703125
144.0600 18719.41796875
145.0399 320424.8125
146.0300 33527.6796875
146.9496 409.413055419922
147.0413 2847.49389648438
148.0700 2439.94067382813
148.2000 111.444190979004
149.1200 7499.140625
150.1300 172948.890625
151.1300 20889.291015625
152.0760 1828.12426757813
152.9800 111.423522949219
153.1200 345.173980712891
153.3200 171.477630615234
153.4200 204.100006103516
153.6300 277.4365234375
153.7800 500.4130859375
153.9700 365.833923339844
154.0900 651.270080566406
155.0224 4351.5048828125
156.0574 8570.25390625
157.0445 9376.9130859375
158.0500 10349.935546875
159.0000 6896.20068359375
159.8100 68.7463836669922
159.9782 690.179931640625
160.0600 1299.09948730469
161.0292 5303.04541015625
161.9400 258.134338378906
162.0700 843.809875488281
162.1600 118.703178405762
162.9666 840.093322753906
163.6500 11.8191471099854
164.0000 425.445770263672
164.2600 15.2776117324829
164.9900 377.594482421875
165.0700 584.166870117188
165.8800 61.7862701416016
166.0000 269.502258300781
166.0800 186.425704956055
166.1900 66.2432174682617
166.9500 1761.45227050781
167.0500 226.462860107422
167.8900 62.3492774963379
168.0400 1360.76171875
168.1100 473.117309570313
168.9500 6.68582916259766
169.0600 3091.20654296875
169.9500 454.677429199219
170.0500 1877.37951660156
171.0600 12966.369140625
172.0500 3114.11865234375
173.0600 2417.21997070313
174.0600 37488.3203125
175.0500 11307.42578125
176.0300 2134.64990234375
177.0301 27963.091796875
178.0400 3339.96875
178.8700 54.2719078063965
179.0000 628.151733398438
179.1400 108.23575592041
179.7000 41.7059860229492
179.9000 186.231384277344
180.0500 775.533508300781
180.9900 1186.11584472656
181.1000 116.647834777832
181.9243 129.665542602539
182.0500 953.383178710938
183.0500 2118.54321289063
183.9100 35.6516456604004
184.0600 2144.94653320313
185.0800 10715.51171875
186.0900 5032.0546875
187.0500 2507.2666015625
187.9700 367.860809326172
188.1200 422.833068847656
188.8148 197.737579345703
188.9206 88.0220184326172
189.0800 113.393928527832
189.8300 48.4968757629395
189.9500 150.587631225586
190.0700 354.725402832031
190.9100 337.279418945313
191.0061 575.9453125
191.1400 81.469612121582
191.8800 39.1052627563477
192.0000 545.757934570313
192.0900 126.53719329834
192.9385 847.658996582031
193.0500 146.709991455078
193.7900 43.8439826965332
193.9200 93.1345520019531
194.0654 541.474731445313
194.8900 105.023193359375
195.0027 839.102294921875
195.0900 286.805267333984
195.8000 54.7090797424316
195.9700 283.773498535156
196.0640 569.08837890625
196.9900 1695.32702636719
197.9772 310.957977294922
198.0600 753.926879882813
198.2400 46.3780364990234
199.0500 4612.2490234375
200.0000 866.852416992188
200.0800 1387.43579101563
200.9200 86.4153518676758
201.0200 1246.62426757813
201.7000 18.3241634368896
202.0000 381.601623535156
202.1100 325.162506103516
202.3500 12.3910732269287
203.0323 1338.31323242188
203.1500 225.598571777344
203.8800 25.29958152771
203.9944 228.479354858398
204.1000 244.147155761719
205.0800 3250.81298828125
206.0700 1434.23254394531
207.1200 14844.546875
208.0800 2897.3349609375
208.7900 24.4981002807617
209.0700 1036.76574707031
210.0600 1713.92077636719
211.0067 3818.8017578125
212.0340 1973.22961425781
213.0994 35387.8046875
214.0697 6430.2021484375
214.9898 8158.80859375
216.0131 1799.03076171875
216.9000 1168.99719238281
217.7900 22.5846519470215
217.9412 376.962646484375
218.1000 294.951934814453
219.0046 4524.33447265625
220.1293 42444.8046875
221.1300 7517.3212890625
222.1000 2147.4326171875
222.9638 872.745361328125
223.0600 429.853240966797
223.8500 88.0821990966797
224.0300 854.490478515625
225.0200 615.950988769531
225.1500 49.7435073852539
225.7600 27.3389778137207
226.0000 209.615020751953
226.1278 519.749633789063
226.9200 291.389007568359
227.0487 80.9690551757813
227.2600 84.1549606323242
228.0300 428.142669677734
228.1300 716.688598632813
228.8800 71.0409393310547
229.0412 832.536499023438
229.9200 219.38346862793
230.0233 464.716461181641
230.1700 217.126525878906
230.2800 75.6363372802734
231.0800 4540.603515625
232.1000 5391.126953125
233.1100 384910
234.1088 55212.546875
235.0794 5926.19970703125
235.9627 230.153427124023
236.0900 1263.92224121094
236.9803 5229.10888671875
238.0645 5057.83935546875
238.9840 1126.74389648438
239.7800 15.0890378952026
239.9900 304.188323974609
240.0900 135.248840332031
240.9121 135.063720703125
241.0300 259.250823974609
241.8200 26.784969329834
241.9800 108.36254119873
242.2900 14.7743988037109
242.7500 59.6837577819824
242.8900 53.9873542785645
242.9900 86.6288223266602
243.1200 31.5535583496094
243.2700 10.9783391952515
243.8700 58.1119041442871
244.0100 117.905395507813
244.9804 140.253784179688
245.1100 538.814086914063
245.9900 50.8668327331543
246.1100 886.698852539063
246.2200 221.092575073242
247.0700 1239.51306152344
247.1700 58.4024772644043
248.0800 1908.51501464844
248.1500 615.766174316406
248.9900 265.776519775391
249.1098 4655.13623046875
250.1000 5100.52197265625
250.9800 54.9200401306152
251.1200 3471.83911132813
251.9000 53.9550743103027
252.0900 797.217407226563
252.1500 1271.20434570313
252.9500 510.985382080078
253.1000 218.036376953125
253.9200 51.6263580322266
254.0400 246.688705444336
254.2000 64.0962066650391
254.8000 85.712272644043
255.0900 87.2994155883789
255.8000 33.0194511413574
255.9900 72.0231857299805
256.0900 23.9986476898193
257.0800 764.599975585938
257.1400 567.197692871094
257.9900 345.095184326172
258.1200 696.0517578125
258.3400 43.177059173584
258.7100 26.3929233551025
259.1000 1750.82653808594
260.1000 1062.03344726563
260.2600 200.703323364258
261.0500 316.320648193359
261.1500 2572.71435546875
261.8900 30.8837871551514
262.0600 760.043823242188
262.1500 407.570739746094
263.1400 3075.41796875
264.0300 257.619659423828
264.1300 1215.435546875
265.0421 47.4849700927734
265.1500 8152.87939453125
266.0800 545.005065917969
266.1600 2237.73950195313
266.7900 10.3108558654785
266.9400 183.6103515625
267.1200 484.928131103516
267.1900 240.123306274414
267.9500 53.7254486083984
268.0600 188.47151184082
268.2200 16.4105339050293
268.8828 189.465179443359
269.0100 323.067718505859
269.8900 68.0231246948242
270.0800 439.252075195313
270.1600 515.177978515625
270.9582 194.366882324219
271.1000 787.698486328125
271.9800 312.717468261719
272.1000 630.2685546875
272.9715 569.256164550781
273.0700 480.285766601563
273.2300 46.1695671081543
273.7000 11.9088773727417
273.8500 54.1701698303223
274.0044 298.322998046875
274.1100 127.525863647461
274.9300 1015.07006835938
275.8450 0.411605834960938
276.0300 134.123184204102
276.1700 308.300933837891
277.0700 2195.39453125
277.8200 46.4851875305176
278.0600 342.100524902344
278.1400 1265.49169921875
278.2200 230.023162841797
279.0000 46.4683456420898
279.1400 1448.84228515625
280.1300 1807.44958496094
280.1900 1513.02575683594
281.1300 1409.95532226563
281.8800 17.5455017089844
282.0223 93.8583831787109
282.1300 140.31721496582
282.8300 52.3654174804688
283.0472 444.264526367188
283.1300 598.400695800781
284.1100 752.929626464844
284.2000 255.630844116211
285.0622 1135.97741699219
286.0099 588.813293457031
286.1100 253.860641479492
286.8300 36.3136100769043
287.0200 402.792694091797
287.1133 831.929992675781
288.1500 7315.56884765625
289.1263 9858.54296875
290.1200 3810.25415039063
290.1600 1791.30249023438
291.0900 1368.61499023438
291.1900 136.847747802734
291.8400 51.297664642334
292.0300 233.356628417969
292.1900 266.077362060547
292.9607 111.576416015625
293.0600 1377.71276855469
294.1500 175388.984375
295.1600 38345.484375
296.0000 190.484344482422
296.1500 4926.89013671875
297.0500 1000.36224365234
297.1600 3449.98193359375
298.1600 72686.53125
299.1600 17337.513671875
300.1400 2305.70263671875
300.2100 395.876312255859
300.9500 182.50114440918
301.0900 317.997772216797
301.9200 27.6278896331787
302.0200 25.1776371002197
302.1400 105.10375213623
302.9200 153.014755249023
303.0700 232.493209838867
303.1400 95.1317443847656
303.8900 40.1806221008301
304.0200 89.5936279296875
304.1600 208.70524597168
304.7100 26.1998195648193
305.0200 78.4834060668945
305.1800 156.243804931641
305.8300 41.5650672912598
306.0000 141.875061035156
306.1300 582.282348632813
306.2400 83.6970138549805
306.9390 71.4408187866211
307.1000 615.439331054688
308.1600 12922.3818359375
309.0600 361.484283447266
309.1700 4479.5009765625
310.1200 955.654602050781
310.2000 287.478057861328
310.9640 55.3021621704102
311.1200 492.976226806641
312.1200 1263.73046875
312.2000 1317.77807617188
313.1400 1416.07946777344
314.1200 1858.91259765625
314.1700 3945.73608398438
314.9200 30.4012126922607
315.1000 818.386169433594
315.1900 1431.69091796875
315.9500 12.1340637207031
316.0900 225.922348022461
316.2500 161.134994506836
316.9100 29.8637275695801
317.0600 75.7701110839844
317.2200 80.8323516845703
317.8100 14.1624565124512
317.9700 91.9443511962891
318.1400 209.682083129883
318.2900 115.382720947266
318.4600 10.1712579727173
318.9200 18.5020885467529
319.0609 113.453330993652
319.1800 275.503295898438
319.9700 107.688377380371
320.1100 194.798248291016
320.3100 58.4344329833984
320.9400 19.9397201538086
321.0900 55.3015289306641
321.1900 94.7973480224609
321.3900 11.0080633163452
322.0200 126.453170776367
322.1700 494.354217529297
322.7800 12.0485134124756
322.9000 42.6580963134766
322.9900 97.5390167236328
323.1700 536.037231445313
323.7900 11.2475709915161
323.9800 153.397232055664
324.1300 247.103576660156
324.2700 20.7992191314697
325.0100 127.039337158203
325.1300 473.544494628906
325.1900 392.567108154297
326.1600 59229.0234375
327.1500 14315.0849609375
327.9900 83.663948059082
328.1700 2709.64086914063
328.9200 18.3799057006836
329.0800 365.969848632813
329.1800 154.523376464844
329.9900 14.8289079666138
330.7400 17.4888210296631
330.9000 92.577766418457
331.9600 49.241569519043
332.8400 48.0732040405273
332.9700 34.3017501831055
333.0900 15.05198097229
333.8000 15.1704072952271
333.9400 55.5067100524902
334.1100 98.3671493530273
334.1900 125.191558837891
334.8900 51.3694839477539
335.1400 434.429016113281
335.2500 430.105529785156
336.0500 113.521186828613
336.2100 450.227996826172
336.3900 41.8695182800293
337.1200 354.865844726563
337.2300 2289.90454101563
338.2100 64391.6796875
339.2100 21790.63671875
340.2200 14120.3564453125
341.1100 153.473922729492
341.2200 3160.21826171875
342.1900 3990.05639648438
342.2500 754.216186523438
343.1100 299.839080810547
343.2500 1072.89282226563
343.9900 54.427806854248
344.1200 93.4096298217773
344.3100 74.1729736328125
344.6900 24.7357387542725
344.9600 107.845672607422
345.1500 10.2476472854614
346.7700 20.5034122467041
346.8900 45.189868927002
347.0200 66.763557434082
348.0000 34.1613845825195
348.1400 53.1517333984375
348.2900 56.7575263977051
348.4500 24.4461841583252
348.8700 88.6972503662109
349.0200 211.879547119141
349.1300 28.4239864349365
349.3000 21.075647354126
350.0400 165.110870361328
350.1600 385.631958007813
350.8900 52.9295616149902
351.0300 86.6213455200195
351.1400 65.0074081420898
351.3700 22.5216503143311
351.5100 18.3267211914063
351.9100 28.3827800750732
352.4500 27.7983150482178
352.6900 10.6538429260254
352.8500 124.317680358887
352.9600 84.6662521362305
353.0700 106.119636535645
353.2200 20.3999710083008
354.2400 7523.19580078125
355.2500 179851.140625
356.2500 45902.1171875
357.1800 396.683319091797
357.2500 5056.51611328125
358.1500 180.048049926758
358.2700 230.704513549805
359.1500 28.2170085906982
360.9200 13.159161567688
361.0500 12.2962646484375
362.0400 53.2641258239746
362.1700 413.415985107422
362.3500 71.2615966796875
362.9800 53.0156593322754
363.1300 119.804412841797
363.2500 742.6630859375
363.9100 12.6903886795044
364.1200 193.814529418945
364.2200 202.163497924805
364.3500 68.0578536987305
364.6400 17.3779640197754
365.1200 195.603332519531
365.3100 145.464294433594
366.1300 190.631896972656
366.2400 540.781066894531
366.9500 35.9528388977051
367.1500 191.345077514648
367.2600 239.127914428711
367.9400 30.1109600067139
368.1600 953.553894042969
368.2700 433.687683105469
369.0800 157.712539672852
369.2300 262.769561767578
369.9000 11.3327789306641
370.1300 13.6258325576782
370.2400 24.8423385620117
371.1100 14.6592922210693
371.9300 15.8509302139282
372.1000 12.6334781646729
376.7900 12.9767751693726
380.2400 13.6386995315552
381.0600 71.2150497436523
381.1600 58.1057090759277
381.3000 58.3313636779785
382.1400 185.98078918457
382.2500 5397.14013671875
383.2498 116130.609375
384.2500 29758.23828125
385.2400 3893.73852539063
385.3800 34.0296516418457
386.1400 156.070327758789
386.2400 235.673492431641
386.3900 41.3571929931641
387.0400 12.4733409881592
397.1700 13.2734203338623
400.9400 15.0150156021118
402.0800 10.2838735580444
406.6200 10.7131700515747
412.9300 12.4189100265503
449.1500 10.8783254623413
