#"+EI Scan (rt: 6.432-6.537 min, 19 scans) R3M1.D  Subtract "
#Point,X(Thompsons),Y(Counts)
40.1144 374.199157714844
41.0700 20532.234375
41.9400 65.6412734985352
42.0612 2788.38037109375
43.0784 6540.92041015625
44.0275 8176.27880859375
45.0000 984.508422851563
45.9100 94.0794677734375
46.0800 178.901290893555
47.0394 3234.4990234375
47.9600 53.4152183532715
48.0400 41.6938247680664
48.9100 66.7793960571289
49.0900 7.91151905059814
49.8800 219.272125244141
50.0100 310.568572998047
50.8600 92.7827911376953
51.0400 1111.32275390625
51.9300 194.485107421875
52.0400 352.846649169922
52.9363 206.874847412109
53.0500 1343.12524414063
53.9900 467.168365478516
54.1000 193.257125854492
55.0448 3420.62158203125
56.0552 1014.36791992188
57.0800 12614.5048828125
58.0341 169.061279296875
58.1300 620.002685546875
59.0231 2749.2548828125
59.9500 330.801666259766
60.1000 166.277053833008
60.9330 175.874145507813
61.0200 917.001525878906
61.8200 22.0984210968018
61.9300 309.144897460938
62.0300 474.303100585938
62.8816 78.5834808349609
63.0181 1270.03674316406
63.9805 93.6488037109375
64.0600 275.103088378906
64.2700 18.665397644043
64.9700 551.081787109375
65.0700 233.483139038086
65.8100 59.3714904785156
65.9400 85.9297866821289
66.0900 122.953796386719
67.0027 799.33740234375
67.0812 380.945220947266
67.7900 20.1668567657471
67.9700 120.582290649414
68.1000 662.373962402344
69.0660 8108.96337890625
70.0100 1208.44494628906
70.0800 860.287658691406
70.9400 164.133422851563
71.0500 653.506958007813
71.7700 8.93299770355225
71.9400 151.340133666992
72.1000 155.426544189453
72.2400 9.60660839080811
73.0390 1433.27917480469
73.8700 81.082633972168
73.9726 621.921691894531
75.0238 2075.18115234375
76.0437 1911.0732421875
76.1500 29.2576580047607
77.0259 4567.7548828125
78.0258 2062.71435546875
78.7800 88.6462020874023
78.9400 574.061096191406
79.6700 8.15851593017578
79.8900 149.317764282227
80.0078 96.1784820556641
80.1700 52.4965934753418
80.9900 132.57763671875
81.9600 539.644409179688
82.0500 46.5702896118164
83.0300 1079.68200683594
83.1400 135.689743041992
83.8500 142.766845703125
83.9882 49.3503036499023
84.0900 192.88639831543
85.0700 191.620697021484
85.8600 49.140007019043
86.0400 797.701538085938
86.1300 161.634796142578
86.9000 445.381103515625
87.0200 685.345825195313
88.0200 2556.70849609375
89.0212 8954.4140625
89.9300 463.460113525391
90.0163 1094.88488769531
90.9200 409.268798828125
91.0200 821.055480957031
91.7800 62.224723815918
92.0700 92.4574584960938
92.1700 20.0746097564697
92.8300 65.7218780517578
93.0900 89.3311538696289
93.2300 18.8688011169434
93.9500 36.1892738342285
94.0300 39.7635383605957
94.1200 19.6329956054688
94.9334 171.638534545898
95.5600 10.0207929611206
95.8000 75.6773910522461
95.9500 216.155960083008
96.0800 107.110206604004
96.8958 56.4596099853516
97.0571 159.788909912109
97.8800 62.6612548828125
97.9600 227.909866333008
98.1000 88.3575439453125
98.7000 14.3179397583008
98.8300 115.643928527832
98.9900 294.274780273438
99.1300 144.908599853516
99.9000 308.263427734375
99.9800 436.687957763672
100.1200 56.8184242248535
101.0300 4326.17578125
102.0308 10588.42578125
102.9200 65.7991638183594
103.0192 4860.1904296875
103.8400 31.6424751281738
104.0100 879.889587402344
104.1500 67.1544799804688
104.7300 36.9149780273438
104.9000 157.081314086914
104.9800 166.953231811523
105.2500 16.2179775238037
105.7700 18.7633609771729
105.8800 159.305038452148
106.0400 123.748497009277
106.1900 15.1698589324951
106.4600 8.13981914520264
106.6500 51.342845916748
106.9900 86.123420715332
107.1000 20.2386322021484
107.7800 18.633695602417
108.0800 18.2399444580078
108.2000 21.638952255249
108.9877 878.667846679688
110.0100 180.469635009766
110.1500 41.9159889221191
110.6400 14.5583305358887
110.9049 15.0081481933594
111.0200 128.119491577148
111.8300 41.5969352722168
111.9400 189.651565551758
112.0800 314.977203369141
112.9300 392.882080078125
113.0145 33.315673828125
113.0800 111.873229980469
114.0100 4247.8193359375
115.0299 14753.8662109375
116.0299 27601.435546875
117.0300 4949.04638671875
118.0266 1652.44580078125
118.6400 14.6298141479492
118.7900 49.0423774719238
118.9400 248.575790405273
119.0481 131.144104003906
119.1300 54.4400634765625
119.7800 49.3568649291992
119.9000 32.4103469848633
120.0700 25.6835098266602
120.6800 14.3166151046753
120.8300 13.6337308883667
120.9400 265.649658203125
121.4000 45.8555793762207
121.5300 74.2710189819336
121.6700 31.4103012084961
121.8800 69.499137878418
122.7500 131.358932495117
123.0400 93.9266891479492
123.8900 19.1590423583984
124.0100 38.2918815612793
124.2300 10.6569871902466
124.8552 13.7885589599609
124.9900 236.271743774414
125.8300 124.950912475586
126.0200 317.706665039063
126.2000 30.641881942749
126.9327 59.9503479003906
127.0200 1271.42529296875
128.0300 12897.5390625
129.0379 21725.306640625
130.0400 17845.162109375
130.9779 1086.43127441406
131.0500 2015.67456054688
131.9600 535.911193847656
132.0700 280.053344726563
132.3100 12.0712413787842
132.7900 32.526439666748
132.9160 189.014801025391
133.2000 34.6975364685059
133.7400 31.3961429595947
133.8700 20.7457275390625
134.0000 139.210250854492
134.3300 10.2576551437378
134.8600 78.9037780761719
134.9500 551.465393066406
135.8900 164.563140869141
136.0064 37.9406127929688
136.1800 17.3346385955811
137.0057 5965.779296875
137.9700 1754.85485839844
138.7900 36.9634628295898
138.9820 267.430908203125
139.8300 79.2064895629883
139.9900 734.706726074219
140.0999 210.781433105469
140.9666 1275.1923828125
142.0200 2866.40551757813
143.0300 21214.236328125
144.0300 80777.7890625
145.0183 9284.1259765625
145.9600 638.641235351563
146.0700 321.312896728516
146.7600 63.0957107543945
147.0300 148.263427734375
147.8500 82.1051025390625
148.0200 455.241882324219
148.8400 158.951095581055
148.9500 81.7505874633789
149.2600 10.0169916152954
149.9300 87.6205368041992
150.0700 55.3916473388672
150.7300 35.134391784668
150.9000 406.419494628906
151.6800 38.5431900024414
151.8100 45.9156494140625
151.9500 134.118759155273
152.0800 230.809265136719
152.9300 509.013977050781
153.0663 241.466323852539
154.0000 1329.74328613281
154.0643 816.516906738281
155.0181 6026.68994140625
156.0400 5032.2119140625
157.0405 6545.1376953125
158.0272 3347.07202148438
158.9800 1846.3515625
159.9404 75.8494262695313
160.0200 318.791351318359
161.0200 316.874145507813
161.5700 10.3017654418945
161.9500 137.831756591797
162.1800 11.5961561203003
162.8400 115.427474975586
162.9317 309.539428710938
163.5300 10.0417556762695
163.8200 65.7416000366211
164.0400 33.0784072875977
164.2400 11.747576713562
164.9075 27.6786727905273
164.9800 186.853927612305
165.0900 33.2984809875488
165.3700 12.1382598876953
165.6800 41.7026329040527
165.8600 130.347778320313
166.0600 178.963684082031
166.3000 15.8364515304565
166.9600 510.698303222656
167.0400 896.92822265625
167.9600 570.934936523438
168.0500 1145.88317871094
169.0200 1213.15637207031
169.1000 118.295318603516
170.0300 2666.7314453125
170.0600 3367.32275390625
170.9589 1215.20947265625
171.0600 437.320709228516
171.8000 64.9171981811523
171.9900 236.424499511719
172.0700 501.223327636719
172.1500 86.5352401733398
172.8800 96.2381591796875
172.9900 587.964965820313
173.0600 7478.84033203125
173.8400 177.118057250977
174.0500 1726.66381835938
174.8900 60.8572044372559
174.9800 189.451766967773
175.1100 57.6464195251465
175.8700 17.9740238189697
175.9800 456.976715087891
176.0800 322.489410400391
176.8839 69.3971099853516
177.0200 159.188095092773
177.9300 123.308479309082
178.0600 67.955696105957
178.2600 13.0081233978271
178.6500 12.8061056137085
178.9300 222.131881713867
179.0700 106.617233276367
179.9200 113.803352355957
180.0300 279.851470947266
180.1600 54.6004524230957
180.9900 959.318969726563
181.9575 352.893005371094
182.1100 366.531097412109
182.9511 81.011962890625
183.0600 613.491149902344
184.0000 992.446838378906
184.0600 1842.75183105469
184.9709 1249.47998046875
185.9500 164.448165893555
186.0700 591.829040527344
186.9410 641.973022460938
187.8700 97.0436401367188
188.0600 73.5698089599609
189.1100 12.6193151473999
189.2400 10.0597200393677
189.8100 30.9794025421143
190.1300 20.6457347869873
190.7600 93.4098739624023
191.0900 122.666969299316
191.7500 12.2881984710693
191.9800 116.429466247559
192.9654 564.076049804688
193.7900 46.4287796020508
193.9623 105.009048461914
194.1300 62.398567199707
194.6800 32.7216300964355
195.0100 566.735717773438
195.9200 181.558670043945
195.9770 63.9261169433594
196.0900 221.174621582031
196.9762 652.356567382813
197.9800 679.402160644531
198.0747 630.389709472656
198.9900 1210.80017089844
199.0500 356.140472412109
199.6200 13.8185615539551
199.7800 47.0995903015137
199.8815 27.1719131469727
199.9900 379.343231201172
200.0754 60.1823196411133
200.7800 46.2132949829102
201.0000 323.322906494141
201.6300 17.8151664733887
201.7800 26.2119598388672
201.9400 232.665679931641
202.0300 249.246322631836
202.6800 51.3019332885742
203.0200 403.893920898438
203.9800 259.127288818359
204.0800 943.058166503906
205.0200 534.571105957031
205.1000 2474.38354492188
206.0300 513.567321777344
206.1200 1144.3408203125
207.0096 1081.75964355469
207.8858 55.6217193603516
208.0300 326.7783203125
208.7400 20.9472980499268
208.8500 131.504684448242
209.1300 162.42561340332
209.4100 12.4396696090698
209.8900 89.7853012084961
209.9900 404.974975585938
210.1100 197.900482177734
210.9847 1487.533203125
212.0771 5000.57763671875
212.8700 83.9967422485352
213.0100 1198.8984375
213.7000 22.20871925354
214.0600 657.481689453125
214.9900 2082.521484375
215.9384 773.9482421875
216.9581 667.629028320313
217.7900 41.9431037902832
217.8665 74.2916564941406
217.9800 219.327377319336
218.0800 20.7061767578125
218.8300 272.563537597656
218.9500 667.759521484375
219.9000 237.785049438477
220.1700 29.5621433258057
220.7200 30.3962955474854
220.8520 74.5354309082031
221.7300 44.6906089782715
221.8700 50.766960144043
221.9900 108.383316040039
222.7300 110.255485534668
222.9213 101.354919433594
223.0600 121.317359924316
223.5600 19.8488254547119
223.8300 86.7898559570313
224.0000 115.6181640625
224.3400 14.0821743011475
224.8600 275.679046630859
224.9735 111.036071777344
225.1600 16.7506999969482
225.8300 29.1170597076416
225.9800 189.303894042969
226.1200 129.994171142578
226.5700 26.797758102417
226.7400 82.8020553588867
227.0700 260.748687744141
227.3700 31.9106769561768
227.8600 125.840347290039
228.0100 319.621978759766
228.2600 85.5365676879883
229.0700 1115.49987792969
230.0900 5512.08349609375
231.0858 4983.748046875
232.1000 403240.28125
233.0938 64803.484375
234.0800 6968.66552734375
234.9965 601.669799804688
235.9900 104.396797180176
236.1400 32.7083549499512
236.9754 1102.4365234375
237.9745 284.35693359375
238.5900 24.1173820495605
238.7800 51.7660636901855
238.9146 90.2620239257813
239.0300 229.431488037109
239.6800 9.14934062957764
239.8200 49.7704238891602
239.9261 76.2378387451172
240.0600 54.1618385314941
241.0500 1841.70080566406
241.8800 29.2497787475586
241.9839 235.148818969727
242.1700 31.6878528594971
242.9400 72.6979598999023
243.0700 181.679397583008
243.2400 22.5092315673828
243.7700 10.5311403274536
243.9800 81.4276580810547
244.0900 140.924575805664
244.2600 75.5350341796875
244.8200 92.0345001220703
245.0700 149.278366088867
245.8800 29.2365913391113
245.9600 66.1157379150391
246.0900 214.653244018555
246.8200 38.8193359375
246.9700 203.018905639648
247.1000 154.087249755859
247.2700 20.7091159820557
247.4100 15.9908256530762
247.9300 87.1750106811523
248.1100 2542.12084960938
249.0600 573.863647460938
249.1800 95.0775604248047
249.9500 34.2250480651855
250.2300 24.5119457244873
250.9300 34.4072151184082
251.0600 30.3638076782227
251.8900 11.5596628189087
252.0200 52.7795867919922
252.6500 42.1232528686523
253.0000 94.7192153930664
253.7800 16.1719036102295
253.9400 63.2155380249023
254.0400 46.2563972473145
254.7300 12.7812433242798
254.9000 118.249359130859
255.0400 55.29541015625
256.0500 50.4690322875977
256.1500 34.6767730712891
256.7800 42.8947257995605
256.9561 50.7126846313477
257.0900 18.1517791748047
257.7300 9.93363189697266
257.8600 9.98820018768311
257.9900 90.6246643066406
258.0900 151.204818725586
259.0800 1583.5908203125
260.1000 4681.1494140625
260.1700 342.696197509766
260.8800 53.9624137878418
261.0800 1209.72680664063
261.9600 164.444229125977
262.2000 61.8046035766602
262.4500 10.8442163467407
262.8300 83.4884414672852
262.9500 20.1429595947266
263.9900 22.6340942382813
264.8100 47.6519432067871
265.0000 10.3219442367554
265.1000 26.8929061889648
265.8800 29.8683052062988
266.1000 109.309928894043
266.2500 10.3121118545532
266.8700 86.2005386352539
266.9500 47.1634712219238
267.0600 256.788146972656
267.1800 49.730770111084
267.8200 28.3757972717285
267.9500 123.034126281738
268.1000 233.395355224609
268.2200 38.4697189331055
268.7900 34.201488494873
268.9600 284.364349365234
269.0406 47.8458480834961
269.6300 11.9661741256714
269.8900 45.069507598877
270.0000 105.276275634766
270.2000 47.8627662658691
270.5900 15.0607767105103
270.8300 323.149475097656
270.9510 42.3109893798828
271.7000 11.5442476272583
271.9100 102.489067077637
272.0500 29.8937091827393
272.1800 14.2484483718872
272.8200 318.442901611328
273.1100 60.5890617370605
273.9000 95.5402526855469
274.0000 28.3505859375
274.7400 97.2249984741211
274.8723 72.7365112304688
275.0400 79.0581436157227
275.7800 29.5338973999023
275.9100 93.1359710693359
275.9900 75.8659439086914
276.9900 224.401168823242
278.7100 37.434268951416
278.8300 0.168937683105469
279.0200 80.2016067504883
279.1300 34.6016464233398
279.5300 12.8651790618896
279.9200 12.2497215270996
280.7100 37.759391784668
280.8800 109.585746765137
281.0384 21.2332382202148
281.2100 15.5650358200073
281.8900 18.5528812408447
282.1300 9.26221179962158
282.7900 15.7660541534424
282.9200 59.2434196472168
283.0300 64.1217498779297
283.2400 19.9232540130615
283.8500 39.5402717590332
283.9900 81.6392211914063
284.1500 23.5258007049561
285.0349 398.165771484375
285.1400 448.256927490234
286.0338 706.832336425781
286.1100 2699.89184570313
287.1100 6190.9287109375
288.1200 20175.748046875
289.0700 4575.93896484375
290.0600 694.39013671875
290.9300 329.776123046875
291.0700 160.099822998047
291.7200 11.818187713623
291.8200 40.828067779541
292.9316 445.753540039063
293.8726 206.911468505859
294.8500 193.405807495117
294.9700 399.9677734375
295.7500 30.4576797485352
295.9400 80.9364776611328
296.0300 32.7232704162598
296.1400 10.1650943756104
296.7600 34.2652397155762
296.9800 459.167755126953
297.4300 15.2303352355957
297.7900 48.4361724853516
297.9400 29.8987331390381
298.0400 95.7280960083008
298.2600 9.72335529327393
298.6700 12.7792778015137
298.9400 80.3974075317383
299.0600 89.8773193359375
299.9600 131.849319458008
300.0900 53.7266120910645
300.3200 15.793683052063
300.8400 85.0206527709961
301.0400 159.211471557617
301.2400 33.3754386901855
301.9200 9.43207740783691
302.1800 20.1864948272705
302.9400 53.6022453308105
303.0412 136.974487304688
303.1700 219.751647949219
303.9600 22.0661220550537
304.0600 386.527740478516
304.2100 70.505859375
304.9500 24.9719924926758
305.1300 3004.64477539063
305.7600 8.50003242492676
306.0600 405.348266601563
306.2100 154.671905517578
306.8400 41.4979972839355
307.0000 136.211090087891
307.2000 17.3205986022949
308.1000 30.9258880615234
309.1600 24.8127593994141
310.1500 9.16848278045654
310.7500 52.8550262451172
311.0000 75.6495056152344
311.8700 33.4105567932129
312.0400 68.7932739257813
312.2200 13.9296970367432
313.0200 8.42380523681641
314.1700 19.4322357177734
314.6600 12.2369718551636
314.9900 32.8396301269531
315.1000 137.446731567383
315.2400 20.7944450378418
315.8900 17.1425724029541
316.0300 103.86141204834
316.1800 36.4254989624023
316.3100 9.07219219207764
317.1700 11753.0234375
318.1800 3421.17578125
318.3100 102.517692565918
319.0400 28.7466201782227
319.1500 412.035034179688
319.3200 30.7549152374268
320.0300 9.0691556930542
322.0200 11.2104816436768
322.9800 15.217791557312
323.1800 33.7392044067383
323.8500 9.69027328491211
324.1600 50.0338249206543
324.3100 8.48037433624268
324.9000 13.3222217559814
325.3200 11.7177572250366
326.0100 29.9481773376465
326.1200 71.7262649536133
326.6700 8.75142192840576
327.0200 140.596557617188
327.1300 41.0535125732422
327.9000 44.9493064880371
328.0200 162.701095581055
328.1700 227.797668457031
328.9000 57.8903694152832
329.0800 886.161376953125
329.1500 1164.27734375
329.3100 28.8158664703369
329.7400 17.9582767486572
329.8600 25.7680377960205
330.0500 191.837860107422
330.1700 338.71435546875
330.5200 20.2420845031738
330.8100 16.012939453125
331.0000 81.68310546875
331.1300 17.5434818267822
332.0000 20.9746742248535
332.1900 16.2955322265625
332.8700 55.5197105407715
333.1900 9.45720481872559
334.9200 12.1188087463379
335.1200 17.910717010498
335.7200 8.62884521484375
340.8700 21.2188472747803
340.9800 14.8603820800781
341.1100 64.1696548461914
341.2400 33.828742980957
341.3600 19.8961277008057
341.9200 12.2595319747925
342.0700 61.850772857666
342.2400 19.059253692627
343.1600 943.520874023438
343.2400 436.220184326172
344.1600 1534.41137695313
345.0100 119.917762756348
345.1500 229.401077270508
345.2900 80.4739685058594
345.8200 30.7310886383057
346.0000 73.6858901977539
346.1200 162.7978515625
346.2300 231.981521606445
346.9500 25.9426593780518
347.0600 18.542652130127
347.2200 21.7367420196533
347.9500 10.0988569259644
348.6500 10.282452583313
348.9700 80.4435806274414
349.0900 10.6246032714844
349.9900 10.8932828903198
350.8400 34.2218589782715
352.5500 8.52353096008301
352.8900 33.4987297058105
353.0000 30.2077922821045
353.7800 11.2768430709839
353.9700 12.2717227935791
354.9700 9.91782855987549
359.0900 19.2652416229248
359.2600 8.66294765472412
359.9000 9.09217548370361
360.0300 27.5176239013672
360.3300 9.55594253540039
361.2107 12057.431640625
362.1600 1167.7900390625
362.2300 1692.17602539063
363.0900 202.932403564453
363.2500 202.868667602539
366.7600 14.6569843292236
366.9100 26.703577041626
367.1500 8.32339477539063
370.9500 9.16704273223877
374.9700 9.66941833496094
382.9200 8.31778144836426
384.1400 8.87640762329102
387.0200 8.44885540008545
389.1700 8.61919689178467
401.1100 44.7114448547363
404.1500 18.3321723937988
