#"+EI Scan (rt: 8.979-9.096 min, 21 scans) R3M1.D  Subtract "
#Point,X(Thompsons),Y(Counts)
40.0800 35.3811492919922
41.0607 4302.16064453125
41.9597 171.379043579102
42.0926 111.908683776855
42.8100 9.79600238800049
42.9480 136.756744384766
43.0801 1651.03723144531
43.9156 215.386703491211
44.9831 171.571319580078
45.9388 34.1292991638184
46.0327 6.39284753799438
46.1683 15.7176189422607
47.0412 1321.51098632813
49.8300 8.2558650970459
49.9754 75.9577941894531
50.1200 27.1351432800293
50.9058 327.798828125
50.9955 3.65475463867188
51.9276 41.4167785644531
52.0628 59.0488548278809
52.9441 184.485260009766
53.0200 132.281661987305
53.8909 44.3843612670898
54.0567 36.7098388671875
54.9794 155.833145141602
55.0926 247.488677978516
55.7187 9.23205375671387
56.0071 46.2623443603516
56.1171 56.2320442199707
56.8382 25.9219627380371
57.0850 131.889877319336
57.8099 0.6236572265625
57.9564 60.9887390136719
58.1330 2.26537322998047
59.0300 1310.3994140625
59.9631 79.3943786621094
60.2100 14.4489488601685
60.8064 10.8175487518311
60.9773 387.717895507813
61.1313 38.8752174377441
61.7800 37.8533935546875
61.9636 77.128288269043
62.1200 29.4804363250732
62.2500 9.62284278869629
62.7400 8.8408203125
62.8847 58.5289001464844
62.9800 527.774047851563
63.0577 34.4515380859375
63.9062 125.647346496582
64.0271 90.9842834472656
64.1800 10.9212236404419
64.9002 142.820434570313
64.9972 139.757919311523
65.1000 36.985969543457
65.8800 43.0200538635254
65.9635 6.71252822875977
66.9500 9.31556701660156
67.0632 174.782272338867
67.2000 10.876371383667
67.9500 33.7470779418945
68.1152 7.09167528152466
69.0413 971.099609375
69.9000 25.6263942718506
70.0618 23.442626953125
70.1600 21.0317668914795
70.5200 8.30435848236084
70.6500 9.07886791229248
70.9430 64.4577484130859
71.1016 60.4347648620605
72.2700 26.509859085083
73.0413 581.148376464844
73.9922 193.039505004883
74.1456 21.0810356140137
75.0282 639.922607421875
75.9370 252.074401855469
76.0735 308.6953125
76.1900 53.638240814209
77.0200 1988.291015625
78.0200 1095.20458984375
78.9805 181.775756835938
79.9751 69.4577026367188
80.1075 31.5596370697021
80.3400 17.9753303527832
80.9770 148.474975585938
81.8761 12.8929023742676
82.0383 7.29350471496582
82.2144 2.68679332733154
82.7657 55.7303695678711
82.9057 96.0335159301758
84.6993 32.2006149291992
85.1700 35.8892135620117
85.9151 53.7784423828125
86.0900 39.8669929504395
86.8770 27.3833255767822
86.9619 213.937591552734
87.0738 82.2283935546875
87.1900 8.7275276184082
87.9200 303.130676269531
88.0892 260.034637451172
88.9655 1006.14208984375
89.0328 1141.24987792969
89.9777 347.390289306641
90.9541 188.762985229492
91.0500 352.03759765625
91.6900 8.00788116455078
91.8038 20.9408264160156
91.9600 22.0876731872559
92.0424 24.3426246643066
92.7669 40.0535011291504
92.8529 24.9215545654297
93.8600 9.17707061767578
94.2400 11.1753416061401
94.3500 19.6342792510986
94.4900 55.4710273742676
94.7200 27.2358207702637
95.0673 106.701675415039
95.5300 10.3140621185303
95.7430 26.4285068511963
96.0953 93.1267242431641
96.9900 43.2842712402344
97.1038 60.3498420715332
97.9700 121.109222412109
98.0757 9.70424270629883
98.3600 10.7077169418335
98.7000 16.4133949279785
98.9700 62.8911933898926
99.0800 30.0453224182129
99.8537 65.9699783325195
99.9840 81.2922897338867
100.2000 13.4525146484375
100.7700 41.9552993774414
100.9395 444.268249511719
101.0600 660.844482421875
101.8753 65.6104049682617
102.0200 2455.58471679688
102.9200 37.5712738037109
103.0279 833.674255371094
103.2139 16.5134353637695
103.8191 52.2814483642578
103.9900 116.667327880859
104.0900 39.1122932434082
104.7004 4.96042060852051
105.0900 65.1580429077148
105.2800 16.7397708892822
105.8500 28.6812896728516
105.9255 42.4740982055664
106.0900 38.295783996582
106.2700 40.0507011413574
106.4200 112.369667053223
106.6106 22.1792087554932
106.8080 21.8272094726563
106.9233 51.5165710449219
107.0900 41.8393745422363
107.2516 30.3854293823242
107.3500 50.8271789550781
107.5900 10.864800453186
107.9680 26.1394271850586
108.1341 40.7463798522949
108.3330 15.3843259811401
109.0012 410.023193359375
109.6600 19.8311157226563
109.8490 16.4109001159668
109.9807 72.4247817993164
110.7907 30.9397010803223
111.0300 174.661590576172
111.0999 55.814525604248
111.7800 28.4586849212646
111.9800 51.7198143005371
112.1400 79.8264846801758
112.3200 34.14453125
112.9710 754.214538574219
113.0942 195.520431518555
113.2600 45.699348449707
113.7800 29.4969139099121
113.9115 59.2827224731445
114.0200 957.52197265625
114.1700 57.7799186706543
115.0295 12412.302734375
116.0298 5252.091796875
116.9943 1071.67272949219
117.7100 18.7948112487793
117.9117 86.5080032348633
118.0800 137.117172241211
118.2100 31.7588500976563
118.3700 17.3565101623535
118.6474 27.3892879486084
118.7847 92.296257019043
118.9720 30.3341369628906
119.1300 11.9967432022095
119.3600 69.0378570556641
119.5300 57.139274597168
119.6400 171.077423095703
119.7400 25.9930248260498
119.8499 7.28332710266113
119.9894 49.7788429260254
120.1670 27.675235748291
120.2800 175.928970336914
120.3900 24.1647663116455
120.5400 239.965545654297
120.7407 224.231079101563
120.9400 48.3522987365723
121.1405 84.5794830322266
121.3600 38.6091613769531
121.6200 80.9931716918945
121.8813 25.1249752044678
122.0126 32.067195892334
122.8447 179.846572875977
123.7747 8.16005802154541
124.0428 6.28859090805054
124.9300 121.549781799316
125.0014 70.1013107299805
125.4000 7.60005187988281
125.8170 30.3847427368164
125.9500 322.259796142578
126.0700 379.488708496094
126.2000 54.7561340332031
126.9700 866.391784667969
127.0802 1023.90069580078
127.1900 166.23371887207
127.3900 20.6671810150146
127.9595 1283.56762695313
128.0402 1656.51623535156
129.0006 2528.93725585938
129.8893 94.0056915283203
130.0199 1691.041015625
130.9025 159.206253051758
131.0523 227.157348632813
131.6400 10.6480007171631
131.7613 21.5106830596924
131.9414 97.4906845092773
132.0900 181.463104248047
132.4100 37.2016448974609
132.6996 190.763320922852
132.8726 116.90153503418
133.0209 83.5792846679688
133.2400 203.93879699707
133.4400 144.96208190918
133.6400 503.054138183594
133.7895 218.138610839844
134.2035 46.5296936035156
134.4800 202.682342529297
134.7007 1174.39331054688
135.0192 295.256530761719
135.1430 51.7915458679199
135.2700 62.7600402832031
135.5000 66.0995712280273
135.7401 33.997730255127
135.9159 128.674133300781
136.2028 16.2044658660889
137.0000 3782.09375
137.9803 509.111145019531
139.0286 5492.17333984375
139.1000 149.553527832031
139.9042 18.2786026000977
140.0504 1847.46447753906
141.0559 10428.533203125
141.6400 260.381408691406
141.8687 763.857299804688
142.0373 586.850891113281
142.8639 68.907356262207
143.0072 865.6201171875
143.1030 51.9546966552734
143.8931 70.8245315551758
144.0300 10016.232421875
144.9651 560.648498535156
145.0494 601.383850097656
145.8600 26.4364356994629
145.9680 117.214782714844
146.0617 27.6489658355713
146.6861 8.10930633544922
146.8376 69.8174819946289
147.1300 28.342529296875
147.2900 20.8748378753662
147.4500 63.4914207458496
147.6783 96.4458618164063
147.8119 41.7476615905762
148.0831 12.0388717651367
148.3800 238.69677734375
148.5200 2070.84497070313
148.7263 23.5468788146973
148.8413 52.5456466674805
148.9808 47.1378555297852
149.1678 183.647079467773
149.4600 56.4696464538574
149.6100 43.1761131286621
149.7993 100.185165405273
149.9523 44.4167709350586
150.0800 64.8489303588867
150.2173 13.3115606307983
150.9178 173.441497802734
151.0356 42.8558502197266
151.1644 18.5014362335205
151.9406 287.025024414063
152.0710 316.415924072266
152.8446 13.2682266235352
153.0239 688.937927246094
153.7014 13.3970718383789
153.8513 56.1647987365723
153.9702 451.280181884766
154.1226 67.6669845581055
155.0018 1029.22485351563
155.8662 62.5112533569336
155.9900 273.372222900391
156.0822 374.719665527344
157.0142 445.834838867188
157.9696 280.462677001953
158.2100 15.0675582885742
158.9646 984.951171875
159.8347 120.053588867188
159.9341 19.3843994140625
160.6500 27.1100177764893
160.9839 146.428497314453
161.1000 26.8033409118652
161.6700 7.3279972076416
161.7890 46.8549728393555
161.9411 39.5190620422363
162.0593 21.7843246459961
162.2700 15.301344871521
162.8596 30.5691833496094
162.9764 305.9375
163.8591 160.348876953125
164.0338 129.221923828125
164.4900 8.05529308319092
164.8459 68.5852203369141
164.9719 223.285842895508
165.0912 67.2261199951172
165.7649 0.0792026519775391
165.9183 17.9013862609863
165.9900 117.478805541992
166.9229 522.955505371094
167.0192 79.968994140625
167.9096 137.614379882813
168.0381 324.366058349609
168.1700 41.9311332702637
169.0393 6623.875
170.0198 1707.97412109375
170.1700 17.2923011779785
170.6813 15.9773654937744
170.9526 202.131103515625
171.0600 63.9697952270508
171.7972 9.97160148620605
171.9000 6.40120840072632
172.0500 45.2198600769043
172.2100 28.5061855316162
172.7986 2.5340518951416
172.9000 71.6545791625977
173.0110 17.6153621673584
173.9400 34.3041076660156
174.0700 19.6264152526855
174.7936 5.00262784957886
175.0304 48.4745903015137
175.1600 9.44939136505127
175.7920 12.0470743179321
175.9282 81.4868621826172
176.0500 96.6680068969727
176.7541 61.0829162597656
176.9530 161.115905761719
177.1600 23.6387062072754
177.7668 3.80949068069458
177.9280 65.2314300537109
178.0694 92.3122253417969
178.5600 22.3054466247559
178.7856 35.8517799377441
178.9270 13.100944519043
179.0200 113.250816345215
179.2400 9.14393424987793
179.5700 9.24653720855713
179.8206 4.46953535079956
179.9544 67.8902740478516
180.0900 85.0524978637695
180.1700 29.3313655853271
181.0293 5178.95849609375
181.8365 24.0099983215332
182.0186 894.45361328125
182.7109 19.0654926300049
182.8849 86.8711318969727
182.9985 44.3038635253906
183.1287 17.151834487915
183.6424 1.12786483764648
183.9300 51.4324836730957
183.9997 249.090423583984
184.2200 15.1827526092529
184.8651 278.14404296875
185.0046 107.410537719727
185.6530 3.89544296264648
185.8424 105.552345275879
185.9837 7.92868518829346
186.2900 31.0280590057373
186.5500 11.6513395309448
186.9160 270.828308105469
187.0328 112.375
187.9398 117.678291320801
188.0600 35.7091827392578
188.9433 180.938873291016
189.0400 120.296058654785
189.9198 94.6938629150391
190.0300 32.3087844848633
190.9769 434.809448242188
191.8800 91.3445510864258
192.0289 27.0689163208008
192.2000 11.7781763076782
192.8115 20.9342842102051
192.9512 60.9061737060547
193.7300 7.64656925201416
193.8513 58.1113052368164
193.9982 28.3003692626953
194.8860 143.682434082031
194.9695 180.735626220703
195.8000 8.38436889648438
195.9423 70.6033477783203
196.8355 227.185729980469
197.0800 61.5875244140625
197.9200 117.537414550781
198.0826 19.4524002075195
198.2800 10.705171585083
198.9740 352.006408691406
199.7548 69.4232406616211
199.8800 19.66748046875
200.0168 313.831268310547
200.8672 197.617126464844
200.9975 201.622024536133
201.9433 337.63818359375
202.0600 228.185852050781
202.6547 13.9882345199585
202.9515 170.084045410156
203.0900 77.5937881469727
203.9483 89.5827789306641
204.0697 230.001174926758
204.2365 11.4112110137939
204.7391 56.0262336730957
204.9081 66.9221343994141
205.0521 51.3043251037598
205.1700 11.5469188690186
206.9500 718.075927734375
207.6000 7.97820043563843
207.8555 86.1019973754883
208.0014 43.3226013183594
208.7540 76.8182754516602
209.0128 79.375244140625
209.6800 9.25329494476318
210.0032 32.2463989257813
210.1615 7.356032371521
210.9900 676.275146484375
211.9454 93.3405609130859
212.0400 336.760803222656
212.9700 690.787963867188
213.0480 271.925476074219
213.9268 72.1103057861328
214.0216 625.131103515625
214.1528 37.1937866210938
214.9786 1942.46997070313
215.9477 349.84619140625
216.9574 197.106185913086
217.7698 39.3808975219727
217.9944 115.37678527832
218.9431 483.145233154297
219.5500 13.8836727142334
219.7057 29.389232635498
219.8417 51.6888656616211
219.9681 21.5556221008301
220.9209 201.157287597656
221.0089 50.763370513916
221.8561 47.1198844909668
222.8034 108.515609741211
223.1041 26.5556926727295
223.7559 26.8961620330811
223.9700 254.802215576172
224.0690 160.814361572266
224.8817 30.3447494506836
224.9800 189.613739013672
225.0706 305.140533447266
225.9500 266.848968505859
226.0699 1270.46948242188
226.9271 264.818572998047
227.0546 592.22900390625
228.0400 678.254638671875
228.1200 203.978057861328
229.0222 459.272521972656
229.6463 2.98543643951416
229.8100 39.029712677002
229.9800 167.535629272461
230.1080 146.790390014648
230.2300 7.31788396835327
230.7536 32.7707252502441
230.9913 81.3189163208008
231.1100 93.6479873657227
232.1000 12724.7109375
233.0084 2997.294921875
234.0328 471.982025146484
234.8714 176.468322753906
235.7388 37.0236015319824
235.8531 26.5296821594238
235.9815 57.0228538513184
236.9646 933.56591796875
237.8634 54.1485176086426
237.9796 355.924560546875
238.9846 712.213317871094
239.0808 439.341491699219
239.9489 103.244201660156
240.0404 822.110900878906
240.1300 579.851867675781
241.0596 4095.11010742188
241.8400 11.9992513656616
242.0095 772.657836914063
242.1100 409.820129394531
242.2300 21.0675868988037
242.7689 20.4120178222656
242.9300 88.2628555297852
243.0310 121.519889831543
243.1400 13.0699787139893
243.7400 9.17862796783447
243.8700 22.318244934082
244.1200 11.3551464080811
244.8276 38.7051048278809
244.9968 75.5927581787109
246.7020 4.63559007644653
246.8400 29.5459041595459
246.9503 20.3130645751953
247.0900 11.2482671737671
248.0300 46.6932029724121
248.1900 8.76919555664063
248.9335 17.4454116821289
249.0431 47.1409950256348
249.9600 70.1336898803711
250.0800 19.6940155029297
250.7964 32.262035369873
250.9702 163.983627319336
251.0400 226.69499206543
251.8900 91.5774383544922
252.0600 597.244567871094
252.4500 9.69783210754395
252.7805 0.728405714035034
252.9579 134.854858398438
253.0700 1089.05456542969
254.0699 4403.8310546875
254.7616 2.78722763061523
254.9000 6.52928733825684
255.0798 2304.0810546875
255.2400 26.6829872131348
255.8700 24.7789306640625
256.0200 734.057861328125
256.1100 392.630767822266
256.9570 264.300598144531
257.1100 117.067985534668
257.8221 33.5040473937988
258.1400 27.5790309906006
258.2400 12.2718553543091
258.8086 58.1449737548828
258.9258 32.4036026000977
260.9084 38.6532897949219
261.0851 7.48949718475342
263.8300 31.8420143127441
264.0700 216.646362304688
264.8200 32.3465766906738
265.0388 256.759063720703
265.1800 22.714864730835
265.9198 241.586700439453
266.0900 508.284423828125
266.3600 7.34265041351318
266.9181 105.350914001465
267.0494 1082.37341308594
267.5900 7.47495603561401
267.9900 280.202819824219
268.0700 2098.20581054688
268.9907 646.81005859375
269.0702 1956.22766113281
269.9877 259.770935058594
270.0900 2743.90698242188
270.9646 301.280700683594
271.0871 537.235656738281
271.7872 24.6456718444824
271.9300 23.2069263458252
272.0156 75.0263900756836
272.2600 8.66020107269287
272.5900 13.2187976837158
272.7761 9.50204849243164
273.0800 40.6501731872559
273.8138 40.0609931945801
273.9325 25.6305599212646
274.0861 4.04838752746582
274.7790 95.3550033569336
274.8998 37.0280838012695
275.6000 22.2659282684326
275.7279 6.90380048751831
275.9809 82.6558074951172
276.7600 74.4809722900391
276.9014 42.7728118896484
276.9964 55.1490325927734
277.8057 31.8245258331299
277.9384 140.267974853516
278.0796 53.2237663269043
278.7937 23.5629768371582
278.8967 124.975944519043
279.0200 76.2194061279297
279.2600 7.92484474182129
279.9702 331.085113525391
280.0800 392.058135986328
280.1700 123.670539855957
280.4400 9.19392204284668
280.9400 95.5200119018555
281.0319 544.835205078125
281.0900 420.391326904297
281.2568 13.75244140625
281.9400 61.4204330444336
282.0699 1340.61328125
282.2012 26.1717338562012
282.8525 37.5232696533203
283.0500 1439.83483886719
283.1101 750.211853027344
284.0300 557.324279785156
284.0900 5792.01806640625
284.9868 340.828460693359
285.1002 1196.41418457031
286.0369 285.885284423828
286.1818 103.658271789551
286.8682 119.524406433105
288.2400 7.96500730514526
288.9600 371.545959472656
289.0517 24.6504936218262
289.6600 0.0556726455688477
289.9188 76.4366073608398
290.0347 13.8671455383301
290.8277 6.03079795837402
290.9739 78.8645782470703
291.1137 27.8531188964844
291.9471 73.0730514526367
292.0586 2.08980369567871
292.3000 7.87873411178589
292.9273 401.552062988281
293.9436 272.865570068359
294.0434 226.822265625
294.1600 29.2593727111816
294.7499 96.4829559326172
295.0500 320.668609619141
295.8673 37.595890045166
295.9975 343.096069335938
296.0900 423.506561279297
296.6919 6.29691505432129
296.9400 180.411041259766
297.0503 451.861572265625
298.0596 4451.5791015625
298.1100 6125.27587890625
298.9463 42.3072128295898
299.0800 2559.04150390625
300.0500 245.770599365234
300.1700 108.318893432617
300.7481 14.8991727828979
301.0276 57.7126159667969
302.8600 28.9592113494873
303.9139 14.2323703765869
305.0228 14.4492502212524
305.1600 8.12486743927002
305.9200 8.13171577453613
306.0500 7.72589492797852
306.8386 17.3640422821045
306.9747 6.55373096466064
307.1500 40.8838348388672
307.6600 8.80256652832031
307.9100 32.0173149108887
308.0500 73.1338806152344
308.2200 26.9122867584229
308.8645 16.9946460723877
309.0100 35.4143753051758
309.1100 9.11251735687256
309.8600 9.48404312133789
309.9900 56.134147644043
310.1100 101.15145111084
310.2400 66.6252899169922
310.8740 31.5055904388428
310.9957 58.528247833252
311.1449 43.5765724182129
311.9517 63.192211151123
312.0800 242.250350952148
312.2300 8.2757511138916
312.9200 38.0901298522949
313.0200 31.9919376373291
313.2600 14.0842761993408
314.7516 29.9151573181152
314.9041 16.3660507202148
315.0184 24.1887073516846
315.1500 14.2468061447144
320.1300 8.57132911682129
320.2600 8.10824680328369
321.2900 8.86820507049561
322.1300 14.212779045105
323.2200 11.5501174926758
323.9600 16.86496925354
324.1000 22.4282188415527
324.2100 7.480881690979
324.8900 8.30815887451172
326.0700 23.2594947814941
326.2400 25.1598720550537
327.0100 10.4954900741577
328.9381 51.6621894836426
329.1300 26.7155933380127
329.8700 9.01894474029541
330.0300 22.8914031982422
330.1800 39.0021209716797
330.9635 10.8564853668213
332.7400 12.0669784545898
332.9300 45.3758354187012
334.1600 9.00614547729492
334.8600 9.06855487823486
335.0500 19.2510204315186
336.0000 70.4536972045898
336.1200 63.650577545166
336.5200 7.89400005340576
336.9100 8.5488452911377
337.0800 14.6261157989502
338.1100 62.3402976989746
338.3200 20.0068874359131
339.0200 12.3718395233154
339.9400 55.127326965332
340.0600 395.479827880859
340.1900 126.800010681152
340.9400 16.5562229156494
341.0400 129.284118652344
341.1600 21.6502799987793
343.1900 8.64352226257324
344.0100 138.920593261719
344.1000 271.774749755859
344.2200 133.709548950195
344.9718 13.7568454742432
345.1000 402.863555908203
345.2800 45.1658020019531
345.6100 16.0543117523193
346.0200 46.4434623718262
346.1200 43.9811706542969
346.2300 47.7263717651367
347.0424 6.6585807800293
348.8123 34.9584693908691
348.9247 60.0902404785156
349.7600 7.71754837036133
350.1200 8.97419929504395
351.0600 8.99557113647461
351.6500 10.1518926620483
352.0100 54.4113426208496
352.1400 67.5775909423828
352.9900 109.785804748535
353.1394 174.456771850586
353.9400 15.0273351669312
354.0600 339.050384521484
354.2100 169.700180053711
354.3200 88.0304794311523
354.8700 27.321475982666
355.0300 123.204238891602
355.1200 104.616432189941
356.1600 10718.2998046875
357.0000 93.0444793701172
357.1400 1883.36120605469
357.2000 1308.92846679688
358.0400 45.873706817627
358.1500 4034.1142578125
359.0400 116.149078369141
359.1400 845.85595703125
359.9000 32.9940757751465
360.0500 55.9727020263672
360.2100 52.5256118774414
360.3700 7.81526756286621
366.6300 7.86460876464844
366.8389 22.0332794189453
367.0076 27.6819343566895
367.1100 10.17857837677
368.9652 16.9716472625732
370.0000 15.9068517684937
370.7449 8.06619262695313
370.8800 41.8403244018555
371.0200 38.1402168273926
371.1311 72.2490768432617
371.2500 8.2380199432373
372.1800 8918.8544921875
373.1900 18251.1953125
374.1800 4607.076171875
375.0500 188.892395019531
375.2000 469.249847412109
375.4800 14.8516006469727
376.1400 54.1520767211914
377.2500 10.3440361022949
430.8300 8.15148544311523
