#"+EI Scan (rt: 8.979-9.090 min, 20 scans) R4M1.D  Subtract "
#Point,X(Thompsons),Y(Counts)
40.0766 84.5788803100586
41.0580 3640.59912109375
41.9480 117.957122802734
42.0400 130.294067382813
42.1321 13.441725730896
43.0500 1715.99499511719
43.9500 96.0922241210938
44.0302 23.1520385742188
44.8100 41.2972640991211
44.9832 1.81147766113281
45.1100 63.8255462646484
45.8869 23.1389827728271
46.0673 19.017635345459
47.0130 1062.73608398438
48.1096 7.22306537628174
49.8800 54.747257232666
50.0023 40.9217987060547
50.1019 31.821647644043
50.9287 306.826385498047
51.8987 10.7205410003662
52.0126 60.221794128418
52.1300 40.0031356811523
52.9763 180.593566894531
53.0755 105.7392578125
53.9773 56.0290718078613
54.1000 3.8131685256958
54.9619 269.308044433594
55.0712 40.5478210449219
55.9093 17.3786468505859
56.1198 33.5969009399414
56.8752 0.411468505859375
57.0073 7.86102294921875
57.1700 49.7610168457031
57.8499 26.2716464996338
57.9594 6.28404235839844
58.1726 69.0099182128906
59.0300 898.38671875
60.0600 133.352722167969
60.9001 134.757202148438
61.0512 257.662780761719
61.7901 20.3597145080566
61.9175 96.7613906860352
62.0652 87.0347595214844
62.9759 620.908386230469
63.7200 7.34202766418457
63.8300 54.8517684936523
63.9294 64.3278274536133
64.0622 25.2886009216309
64.9375 237.750198364258
65.0761 82.3002395629883
65.1900 16.5179061889648
66.9641 52.9333038330078
67.0900 169.588836669922
67.7961 6.54694318771362
68.0300 33.7505874633789
68.1405 23.9095726013184
68.2700 7.79582977294922
69.0400 1119.55004882813
69.9194 70.6129837036133
71.0228 38.3710861206055
71.1300 7.04949998855591
71.8900 6.36315870285034
72.1245 33.3801574707031
72.2931 2.93040370941162
73.0321 358.677917480469
73.9934 154.26806640625
74.1061 95.2114334106445
74.9956 547.964233398438
76.0186 470.181671142578
76.1300 1.35499572753906
77.0253 1211.595703125
78.0253 573.9501953125
78.8936 36.8110809326172
78.9865 229.577728271484
80.0000 69.194694519043
80.9713 36.412109375
81.8300 18.980884552002
81.9561 55.0020446777344
82.2800 8.82770347595215
83.0343 126.212005615234
83.6100 9.59561347961426
84.1400 19.0001068115234
84.9811 71.3694763183594
85.1837 10.4842386245728
85.8802 4.98609924316406
86.0200 40.5129699707031
86.6900 17.2391109466553
86.8278 18.6931781768799
86.9900 222.977737426758
87.1245 8.85217571258545
87.8000 48.3239898681641
87.9900 340.322479248047
88.0806 164.630859375
89.0175 1972.80004882813
89.9830 143.938110351563
90.1114 176.53727722168
90.9822 339.448059082031
91.0868 169.669708251953
91.7823 16.0738868713379
92.8400 63.2561874389648
93.1574 3.56808567047119
93.7999 4.40447092056274
93.9200 11.1733436584473
94.0515 36.0726089477539
94.2300 23.7311038970947
94.3900 9.54191780090332
94.6963 6.66170310974121
94.8208 27.8602447509766
94.9365 57.5393447875977
95.0456 12.9254531860352
95.5900 8.77717399597168
95.9144 62.8536338806152
96.0233 66.0406188964844
96.2900 7.11270475387573
97.0471 41.0706176757813
97.8079 29.3965530395508
97.9432 100.711524963379
98.8847 55.2605895996094
99.0389 53.0858497619629
99.2655 14.7565975189209
99.4400 13.9581470489502
99.7344 14.6450901031494
99.8909 74.8361511230469
100.0414 76.3621215820313
100.1600 28.5391807556152
100.6800 17.7911148071289
100.9490 317.283599853516
101.0600 665.401245117188
101.7864 15.9841337203979
101.9598 405.459014892578
102.0300 1815.99401855469
102.9078 46.8528594970703
102.9928 786.26123046875
103.7665 10.6387357711792
103.9500 125.822914123535
104.0733 12.1908922195435
104.8834 34.8790512084961
105.0126 4.19139862060547
105.9473 25.7296905517578
106.0283 43.2350769042969
106.1900 51.2959060668945
106.4200 54.5188827514648
106.5500 16.54416847229
106.8065 65.7915878295898
106.9967 51.8629760742188
107.0900 17.1223773956299
107.1800 44.6501350402832
107.3500 33.4687271118164
107.6200 79.8714294433594
107.7339 4.41591930389404
107.9343 4.04048538208008
108.0978 46.6866798400879
108.9467 638.7568359375
109.9260 42.8180084228516
110.0605 29.3555297851563
110.9331 66.0583038330078
111.0915 103.515441894531
111.6600 12.6544981002808
111.8853 27.3182373046875
112.0493 69.3203430175781
112.2100 18.8272151947021
112.8095 96.3279647827148
112.9216 211.165817260742
113.0171 346.178802490234
113.1430 89.3316802978516
113.6800 33.4770355224609
113.8100 85.0949935913086
114.0500 767.473510742188
114.1900 105.480445861816
115.0295 11520.6640625
116.0199 4891.61865234375
116.9135 315.661193847656
117.0171 563.860656738281
117.7792 87.9474639892578
117.8930 69.5920486450195
118.0235 27.7491035461426
118.1700 72.445068359375
118.4500 37.0330123901367
118.6500 11.8206415176392
118.9233 69.0132751464844
119.0500 163.292007446289
119.1965 64.481689453125
119.4900 144.362823486328
119.6600 136.366973876953
119.9257 37.5741958618164
120.3600 143.817199707031
120.4800 249.589447021484
120.6889 193.940551757813
120.8408 10.401683807373
120.9821 92.1350402832031
121.1407 104.536407470703
121.2700 10.7173862457275
121.7600 62.8968124389648
121.9457 21.3657627105713
122.2300 9.00496959686279
122.9487 77.69140625
123.7551 23.0554065704346
123.9089 19.0381240844727
124.8325 52.9085998535156
124.9731 81.5250091552734
125.1007 13.4661903381348
125.8270 32.8277587890625
125.9703 114.310813903809
126.0701 457.926879882813
126.2500 84.7868804931641
126.9649 942.544128417969
127.0803 1116.88342285156
127.7209 13.6623134613037
127.8792 299.616119384766
128.0399 2343.48999023438
128.8930 105.534980773926
129.0291 2035.07067871094
129.7800 21.0486145019531
129.9347 258.140594482422
130.0309 1196.19567871094
130.1730 17.0020694732666
130.8087 16.7914695739746
130.9177 35.1621780395508
131.0200 228.671890258789
131.1900 16.3454780578613
131.7006 41.9341621398926
131.9195 114.246841430664
132.0582 71.3053436279297
132.1800 113.399154663086
132.3700 35.3246154785156
132.7660 137.681838989258
133.1029 170.261047363281
133.2800 124.549850463867
133.4400 190.439712524414
133.5900 309.897766113281
133.7100 246.407073974609
133.8271 27.8646068572998
133.9713 130.350448608398
134.2500 85.6622695922852
134.3905 143.890151977539
134.5402 243.922409057617
134.6700 274.176605224609
134.7921 391.206634521484
135.0099 130.33430480957
135.4600 35.9620056152344
135.5796 33.2864723205566
135.7527 174.397872924805
136.1378 114.071563720703
137.0000 1862.4189453125
138.0026 523.196044921875
139.0294 5178.087890625
140.0295 1761.17687988281
140.1475 83.6591949462891
141.0697 10021.5869140625
141.7429 140.898452758789
141.9404 783.165405273438
142.0804 536.516357421875
142.9313 422.895477294922
143.0535 462.976379394531
144.0300 8759.1494140625
144.8500 1.87991333007813
144.9600 840.824462890625
145.0613 159.628280639648
145.7727 3.52565574645996
145.8930 99.0783920288086
146.4100 10.2711839675903
146.6386 24.0045032501221
146.8423 10.5064849853516
147.0124 82.1591796875
147.1800 53.8803634643555
147.4300 103.320030212402
147.6200 137.861907958984
147.7900 15.51686668396
148.3500 51.3233871459961
148.5200 717.411437988281
148.6300 1586.65576171875
149.1400 65.467529296875
149.2800 7.60801696777344
149.5100 19.4824028015137
149.7400 28.177942276001
149.8508 105.259651184082
149.9900 28.1435146331787
150.0900 44.6925277709961
150.8576 168.223022460938
150.9587 193.210723876953
151.9529 162.544494628906
152.0317 260.686614990234
152.9000 282.991271972656
153.0224 338.427429199219
153.2617 25.6371517181396
153.7964 43.2953910827637
153.8780 70.3570556640625
153.9922 239.456649780273
154.1107 172.700332641602
154.9858 868.994689941406
155.7763 9.9866771697998
156.0539 635.840393066406
157.0169 378.992736816406
157.9643 220.070114135742
158.2947 19.1023063659668
158.9753 591.8505859375
159.9400 209.192108154297
160.8853 285.503448486328
161.6800 20.0560264587402
161.8071 14.7484016418457
162.0259 43.4317245483398
162.4100 15.582423210144
162.7759 32.214771270752
162.8725 198.141296386719
163.6838 1.407790184021
163.8983 123.184577941895
164.0486 62.5751800537109
164.1700 12.9701156616211
164.7768 28.5398178100586
164.9130 137.032012939453
165.0297 129.378936767578
165.1800 8.97293663024902
165.3500 8.24706172943115
165.7253 43.325553894043
165.9200 19.5700550079346
166.0627 102.173309326172
166.7134 8.87732124328613
166.9096 258.918579101563
167.7733 5.64470672607422
168.0193 542.686828613281
169.0398 6098.25146484375
169.9901 749.194274902344
170.0500 662.147094726563
170.9553 225.375518798828
171.0517 113.523582458496
171.1500 22.8923206329346
171.8393 2.71723461151123
171.9700 23.7932739257813
172.1396 21.516580581665
172.7291 19.31711769104
172.8901 3.4022274017334
173.8500 54.274585723877
173.9881 25.3062915802002
174.9300 8.50856781005859
175.0600 11.4272365570068
175.8911 103.306846618652
176.1000 101.586563110352
176.8854 40.9541244506836
177.0272 32.8720436096191
177.1206 67.6503067016602
177.8800 87.0698623657227
177.9773 31.8080787658691
178.1300 22.6139717102051
178.8741 31.2810859680176
179.0521 110.544975280762
179.8960 7.91476535797119
179.9864 73.0969848632813
180.1806 19.0532112121582
181.0166 4364.837890625
181.7641 7.48008155822754
181.9050 143.923706054688
182.0476 730.346435546875
182.9400 172.143646240234
183.0238 66.3339691162109
183.8380 16.9522247314453
183.9705 123.611259460449
184.0800 113.107406616211
184.1823 7.28623533248901
184.3900 21.3831024169922
184.8657 95.5560607910156
184.9779 75.0381011962891
185.2200 15.8252563476563
185.8800 13.9578876495361
186.0000 9.62308216094971
186.3100 10.767427444458
186.4700 14.1144609451294
186.5976 7.80862474441528
186.8340 54.6972579956055
186.9337 119.223388671875
187.0783 97.5972366333008
187.9150 61.5103073120117
188.0502 77.6187286376953
188.8400 87.0512313842773
188.9747 170.4765625
190.0200 107.123779296875
190.1700 14.3416690826416
190.8166 27.2835254669189
190.9630 47.0833740234375
191.6630 6.19304847717285
191.8064 48.1359214782715
191.9100 9.53010082244873
192.0238 97.6288604736328
192.2180 11.6021661758423
192.8900 293.82568359375
193.1873 9.9442195892334
193.7548 10.3658380508423
193.9418 62.9382858276367
194.0316 35.8754844665527
194.7640 12.1124687194824
194.9425 62.197998046875
195.0500 74.6640472412109
196.0008 90.1465454101563
196.8635 269.760192871094
197.9942 133.05354309082
198.9050 137.419052124023
199.0580 15.0162811279297
199.9800 237.04133605957
200.1200 107.576438903809
200.9300 389.163970947266
201.8226 47.9783630371094
201.9386 166.256256103516
202.0396 275.736145019531
202.1856 12.3584280014038
202.7731 37.0340423583984
202.9900 100.192848205566
203.1806 54.4123115539551
203.9084 67.6232528686523
204.0100 232.62158203125
204.6521 17.1584815979004
204.8258 46.4276885986328
204.9495 5.73712158203125
205.0532 36.8462448120117
205.2000 8.75153064727783
205.9287 41.8452949523926
206.8078 79.8735656738281
206.9630 410.815002441406
207.9557 50.938850402832
208.0618 15.6024837493896
208.7623 10.4027490615845
208.9017 101.515579223633
210.9952 235.61962890625
211.8213 32.6267242431641
211.9209 242.732925415039
212.0118 68.2737274169922
212.9500 243.40576171875
213.0318 581.538391113281
213.8399 11.1613655090332
213.9883 292.549560546875
214.0704 351.096282958984
214.9853 936.7373046875
215.9703 317.366973876953
216.8793 119.372299194336
216.9668 138.167938232422
217.8100 18.9690856933594
217.9985 42.0834121704102
218.9365 319.311462402344
219.9627 139.029846191406
220.0914 35.7286033630371
220.8504 6.86888122558594
220.9732 9.71287536621094
221.7100 9.81141471862793
221.8546 39.3334770202637
221.9885 12.670581817627
222.5866 7.85886096954346
222.9584 42.7104797363281
223.0697 23.7288703918457
223.8281 59.2774963378906
223.9983 222.282150268555
224.1100 87.604606628418
224.2900 20.3452644348145
224.8114 51.7287940979004
224.9739 113.56005859375
225.0386 236.371841430664
225.1625 7.0414514541626
225.9899 726.359619140625
226.0700 706.994812011719
226.9397 312.787261962891
227.0612 553.548889160156
227.8584 24.2342071533203
227.9800 164.289443969727
228.0900 592.170532226563
229.0600 441.110534667969
229.7610 18.1321659088135
229.9348 139.694915771484
230.0561 195.871688842773
230.5600 12.7625789642334
230.7229 25.8712100982666
230.9035 46.2518424987793
231.0588 138.430450439453
231.1995 4.97007656097412
232.1000 11299.5546875
233.0077 2224.33203125
233.9767 275.553588867188
234.8487 44.9612579345703
234.9561 161.974273681641
235.9718 104.862442016602
236.9753 685.5361328125
237.9264 347.777770996094
238.0054 79.367431640625
238.9203 76.0319366455078
239.0229 634.142028808594
239.9594 490.472290039063
240.0898 930.385131835938
241.0501 3924.66479492188
241.8390 89.8664932250977
242.0280 688.074890136719
242.1003 223.643341064453
242.2400 30.2576026916504
242.7300 4.00135040283203
242.9714 213.062713623047
243.1800 38.1854476928711
243.8989 16.3419418334961
244.7430 6.07157611846924
244.9272 25.4588508605957
246.8833 2.82811260223389
248.9916 82.8681640625
249.1483 10.3628959655762
250.0000 15.3519630432129
250.7000 8.2053050994873
250.9089 69.3783187866211
251.0211 208.470413208008
251.1300 94.1787261962891
251.6300 12.5105276107788
251.8400 36.0528411865234
252.0200 392.204742431641
252.1200 66.2053985595703
252.2700 25.2113342285156
252.9600 262.317535400391
253.0699 841.5205078125
254.0800 3974.95849609375
254.9383 301.52001953125
255.0600 1908.6533203125
255.9300 116.652122497559
256.0800 842.831909179688
256.1900 15.4232158660889
256.5200 8.08270835876465
256.9300 191.209564208984
257.0509 192.771774291992
257.2300 10.9249973297119
257.9095 7.40788555145264
258.0300 65.6859436035156
258.8590 4.92722797393799
258.9996 7.77997398376465
260.7701 15.9385948181152
261.8800 10.332649230957
262.8565 8.05812835693359
263.0400 16.7940444946289
263.7900 28.7867546081543
263.9000 32.5152816772461
264.1200 53.2768745422363
264.5400 7.78122425079346
264.9768 78.1019821166992
265.0996 293.060729980469
265.3200 11.2522411346436
265.9900 268.824768066406
266.1200 371.896209716797
267.0094 685.37353515625
267.1092 321.705841064453
268.0100 538.544677734375
268.1100 1517.92346191406
269.0400 1663.77465820313
269.1000 747.988098144531
269.9798 165.343368530273
270.0900 2363.67919921875
271.0300 342.445770263672
271.1000 369.083068847656
271.7527 21.9293117523193
271.9269 90.8420715332031
272.0732 1.70674467086792
272.6472 21.4535751342773
272.9630 110.055992126465
273.8920 5.28470993041992
274.1700 7.82734966278076
274.6269 7.88225555419922
274.9096 166.993362426758
275.5900 5.49728393554688
275.8941 16.2120056152344
276.0132 21.566499710083
276.5900 8.14438056945801
276.9632 126.535011291504
277.0773 15.151463508606
277.6532 5.32565641403198
277.8693 41.2836875915527
277.9800 75.8413925170898
278.0663 41.346061706543
278.9153 77.2251281738281
279.0600 148.226364135742
279.9499 245.9697265625
280.0700 449.235534667969
280.9800 325.658630371094
281.0779 633.492919921875
281.9997 252.021896362305
282.0900 1096.67333984375
282.9463 130.744247436523
283.0799 1859.89855957031
284.0800 5705.73388671875
284.9770 334.56787109375
285.0600 1177.35632324219
285.1300 57.6203117370605
285.9529 88.9293365478516
286.1058 190.406799316406
286.8132 21.3786106109619
287.0061 7.56944274902344
287.9292 5.8167781829834
288.3100 17.8023338317871
288.9692 313.056427001953
289.9064 118.823150634766
290.9967 99.57275390625
291.0831 37.8578071594238
291.8305 15.7343978881836
291.9813 77.7123947143555
292.9809 634.502563476563
293.9479 249.374954223633
294.0804 91.4014129638672
294.4600 7.95664119720459
294.9274 9.96681213378906
295.0815 186.779495239258
295.9000 69.004020690918
296.0300 406.997619628906
296.1197 248.22021484375
296.9755 429.118041992188
297.0897 181.684539794922
298.1100 10002.2109375
299.0273 658.445373535156
299.1100 1770.93029785156
299.8895 43.4133453369141
300.0600 252.560394287109
300.2500 17.328649520874
300.7800 9.81890296936035
300.8923 14.9441871643066
301.0838 4.17158365249634
302.1100 9.94936847686768
302.8267 4.77791690826416
303.0900 8.01660346984863
304.0772 10.2309446334839
306.0500 8.16167545318604
306.3200 9.09437370300293
307.0218 81.6743469238281
307.9400 27.9868431091309
308.0500 112.893417358398
308.2200 34.0976448059082
308.9987 38.6329116821289
309.1313 25.9638042449951
309.9100 99.29052734375
310.0600 43.4505233764648
310.1600 18.4031467437744
310.7947 10.9959945678711
310.9409 37.1094970703125
311.0458 36.8913726806641
311.8300 28.4173641204834
311.9600 45.671745300293
312.0700 151.290100097656
312.2300 28.2321681976318
313.0600 28.0062923431396
314.9012 37.7821731567383
315.0988 14.2599325180054
315.9100 8.41434288024902
318.9612 6.51458835601807
322.0300 31.7865543365479
322.9900 8.07674694061279
323.8100 11.1013402938843
323.9800 39.1759452819824
324.1200 18.1371650695801
325.8500 9.07798099517822
326.0300 42.3045654296875
326.9200 8.79755687713623
327.0800 9.20592021942139
328.8538 6.5841588973999
328.9900 24.8316135406494
329.1154 13.9783048629761
329.9400 18.6873683929443
330.2000 10.5851831436157
330.8566 2.48747158050537
332.8978 6.71247243881226
336.0000 87.3352584838867
336.1600 49.3770561218262
336.8800 17.7871189117432
337.0127 16.8870601654053
337.9300 34.9178848266602
338.0875 21.2918529510498
338.2700 18.0221729278564
338.9900 51.6885147094727
339.9200 8.43949699401855
340.1100 388.956085205078
340.2300 72.6769256591797
340.9389 65.1157455444336
341.1300 47.5065612792969
341.2600 35.988826751709
342.0600 18.8708076477051
344.0500 88.9619979858398
344.1600 274.876831054688
344.3100 42.6717758178711
344.8859 12.6919193267822
345.0277 134.273681640625
345.1398 281.716339111328
345.3300 51.2518539428711
345.5500 12.3435249328613
345.9400 46.115291595459
346.1000 61.5041694641113
348.8121 92.7927474975586
350.0100 10.3738431930542
350.7400 7.5905327796936
351.1000 16.6769733428955
351.8900 9.25034141540527
352.0300 53.517448425293
352.8804 108.960060119629
353.0300 125.496849060059
353.1802 68.8297348022461
353.3100 22.976842880249
353.8700 13.8537693023682
354.0300 173.886138916016
354.1500 305.914093017578
354.2400 78.1777954101563
354.9186 50.991039276123
355.1200 192.001068115234
356.1700 10118.9130859375
357.0900 917.624328613281
357.1800 2123.57495117188
357.9300 87.5558853149414
358.0200 35.3849563598633
358.1500 3460.37646484375
359.0000 131.582061767578
359.1100 566.3720703125
359.2000 274.37109375
360.0118 14.6999778747559
360.2100 148.442642211914
367.0385 1.85226774215698
369.0952 7.22146129608154
369.8700 9.73697471618652
370.1400 11.2762441635132
370.8100 25.5767002105713
371.0312 66.1014633178711
371.1800 29.845890045166
372.1600 8422.025390625
373.1800 17077.67578125
374.1600 3371.15893554688
374.2200 933.0185546875
374.9500 17.6652641296387
375.1400 644.597778320313
376.0600 8.66832160949707
376.2300 7.85434246063232
