#"+EI Scan (rt: 4.711-4.743 min, 6 scans) Iso4-2.D  Subtract "
#Point,X(Thompsons),Y(Counts)
40.0 2292.41088867188
41.1 17017.435546875
42.1 40569.59765625
43.1 18797.3359375
44.0 4191.4541015625
45.0 108.275817871094
45.3 43.9323844909668
45.6 93.4090576171875
45.7 47.4387512207031
48.9 30.1792831420898
49.0 187.213821411133
50.0 6351.66162109375
51.0 19292.583984375
52.0 5771.82958984375
53.1 2629.10278320313
54.0 3532.48266601563
55.1 2777.23071289063
56.1 68935.6328125
57.1 938.517211914063
57.2 27700.380859375
58.1 1412125.75
59.1 56501.52734375
60.0 1055.98608398438
61.0 620.9365234375
61.1 107.923301696777
62.0 3891.24438476563
63.0 15766.0986328125
64.1 4922.005859375
65.0 57870.46484375
65.9 446.93896484375
66.4 5912.91845703125
66.7 5911.71728515625
67.0 216.269958496094
67.9 133.115249633789
68.0 457.207122802734
69.0 37.2590141296387
70.1 2408.17553710938
71.1 1126.80541992188
71.9 75.9723815917969
72.2 172.777908325195
72.7 568.750305175781
73.9 106.390953063965
74.0 2500.23095703125
75.0 2829.98022460938
76.0 3495.33569335938
77.0 25715.2890625
78.0 11694.56640625
79.0 5761.81982421875
79.9 42.1895484924316
80.0 1008.18560791016
81.0 230.476837158203
81.9 69.7817077636719
82.1 31.659782409668
85.0 349.128173828125
86.0 958.272705078125
86.9 42.7501258850098
87.0 1226.75549316406
87.9 39.113655090332
88.0 726.059875488281
89.0 19701.1484375
90.1 9567.0048828125
91.0 164713.765625
92.0 16004.1982421875
93.1 3872.1669921875
94.0 599.225402832031
94.9 35.7136650085449
97.9 117.136962890625
98.0 38.6774253845215
98.9 64.3525619506836
99.9 25.35888671875
100.9 34.9165458679199
101.0 689.373229980469
102.0 4712.3203125
103.0 12667.5703125
104.1 9119.5986328125
105.1 9347.6005859375
106.1 2391.72705078125
107.0 607.858581542969
107.1 28.979133605957
108.0 87.3730087280273
108.1 41.3821296691895
109.0 76.9693145751953
109.9 37.2021484375
110.9 27.4177227020264
113.0 459.561126708984
114.1 543.26611328125
115.0 32068.486328125
116.0 9739.2939453125
117.1 34191.69921875
118.0 19683.50390625
119.1 32583.1875
120.1 3636.9365234375
121.0 183.452285766602
127.0 131.399703979492
128.0 506.662506103516
128.1 26.1055202484131
129.0 734.235900878906
130.0 6573.060546875
131.1 3186.71069335938
132.1 18155.697265625
133.1 14135.0078125
134.1 58471.828125
135.1 5838.48828125
136.1 286.124847412109
137.0 341.090087890625
137.9 96.9228057861328
138.0 49.755012512207
138.9 26.1229419708252
139.0 29.420919418335
140.9 63.6011924743652
142.0 63.010196685791
143.0 206.565063476563
143.9 45.0241851806641
144.0 1802.02587890625
145.0 289.276336669922
145.1 167.037155151367
146.1 4392.6484375
147.1 1926.99853515625
148.1 18486.77734375
149.1 2437.98193359375
150.0 334.169830322266
150.1 1458.607421875
151.1 295.731475830078
155.0 85.9993667602539
158.9 140.879699707031
159.8 25.0242805480957
161.1 26.8212032318115
163.0 17.1559505462646
194.9 22.9804363250732
210.9 113.891174316406
215.0 416.610229492188
216.0 97.1308288574219
217.0 126.282501220703
219.0 138.680313110352
220.9 24.0273780822754
233.0 169.693099975586
233.9 106.93285369873
237.0 109.149841308594
237.9 29.9380722045898
288.9 93.2378768920898
292.9 157.672012329102
