#"+EI Scan (rt: 4.711-4.743 min, 6 scans) Iso4-3.D  Subtract "
#Point,X(Thompsons),Y(Counts)
40.1 3170.42529296875
41.1 16964.875
42.1 41109.4453125
43.1 19452.337890625
44.1 4324.47607421875
45.2 197.69889831543
45.4 76.8047866821289
46.3 31.9753494262695
48.9 53.827808380127
49.0 25.9282665252686
50.0 6326.46240234375
51.0 19699.69921875
52.0 5907.77587890625
53.0 2634.81079101563
54.0 3728.0615234375
55.1 2821.38012695313
56.1 70681.3671875
57.2 29564.890625
58.1 1454317.625
59.1 57805.07421875
60.0 1123.60107421875
60.9 25.1132564544678
61.0 760.22216796875
62.0 4167.0078125
63.0 16273.46875
64.1 5093.20263671875
65.0 59080.6015625
65.9 169.991363525391
66.3 6144.09765625
66.4 220.305374145508
66.8 6255.611328125
67.9 539.747192382813
68.0 91.1731948852539
69.0 103.217063903809
70.1 2587.8642578125
71.0 267.313842773438
71.2 901.151611328125
71.7 111.996398925781
72.3 124.346099853516
72.4 342.743408203125
72.6 91.9488143920898
72.8 98.3851928710938
73.1 51.9188117980957
73.3 53.5490417480469
74.0 2636.34716796875
75.0 2914.650390625
76.0 3667.45043945313
77.0 26501.119140625
78.0 11797.6982421875
79.0 5862.22314453125
80.0 980.3427734375
81.0 213.580230712891
82.1 82.5813674926758
85.0 305.118225097656
85.9 47.7227020263672
86.0 888.907531738281
86.9 40.1043701171875
87.0 1243.521484375
87.9 35.6582641601563
88.0 875.468688964844
89.0 20037.955078125
90.1 9944.6416015625
91.0 169554.765625
92.1 16408.29296875
92.9 136.033111572266
93.1 3694.78588867188
94.1 653.394958496094
94.9 72.2930603027344
95.1 27.3654346466064
97.0 26.5114974975586
97.9 183.977188110352
98.9 76.3918762207031
100.0 26.9915256500244
101.0 283.366546630859
101.1 443.392578125
102.0 5056.58984375
103.1 12645.7431640625
104.1 9126.9833984375
105.1 9327.615234375
106.0 2467.82592773438
107.0 691.232727050781
107.9 45.9257392883301
108.1 97.0737533569336
109.0 195.346542358398
111.0 28.2467403411865
113.0 419.451019287109
114.1 494.506134033203
115.0 33084.5
116.1 9985.3759765625
117.0 35477.87890625
118.0 20158.326171875
119.1 33259.15625
119.9 124.666709899902
120.1 3454.77075195313
121.0 179.801651000977
126.9 83.0541229248047
127.0 37.2312202453613
127.9 190.065872192383
128.1 287.633392333984
129.0 465.939086914063
129.1 246.823364257813
130.0 6720.080078125
131.1 3130.275390625
132.1 18540.470703125
133.1 14655.7041015625
134.1 59228.73828125
135.1 6029.91015625
136.1 306.380340576172
137.0 539.323913574219
138.0 84.3735656738281
138.2 27.4134349822998
140.9 7.58688354492188
141.1 30.1360301971436
141.9 29.2625141143799
142.0 103.538055419922
142.8 42.7648124694824
143.0 213.313232421875
143.3 31.6541080474854
144.1 1798.890625
144.9 73.171745300293
145.0 391.200317382813
146.1 4477.1279296875
147.1 2125.40307617188
148.1 19388.10546875
149.1 2638.70556640625
150.1 1939.83459472656
151.0 137.95866394043
151.2 106.624206542969
154.9 10.7103214263916
155.0 72.2354354858398
158.9 158.615310668945
159.9 23.5889358520508
160.0 26.0325794219971
160.9 27.182502746582
162.8 48.574592590332
210.9 105.404037475586
215.0 644.745239257813
215.9 178.418807983398
216.9 17.2868690490723
217.0 104.167427062988
218.9 197.803909301758
219.9 26.8966503143311
232.9 299.223510742188
234.0 25.1803016662598
236.9 374.654907226563
237.8 18.2093753814697
238.0 120.121124267578
238.9 91.1325302124023
273.0 24.3511219024658
280.9 28.4255752563477
288.9 132.387008666992
289.0 14.422924041748
292.8 120.696807861328
292.9 88.599723815918
