#"+EI Scan (rt: 4.312-4.371 min, 11 scans) CM1-2-2.D  Subtract "
#Point,X(Thompsons),Y(Counts)
40.0 269.283538818359
41.1 5211.41845703125
42.1 25316.4921875
43.0 1254.70776367188
43.1 1149.35498046875
44.1 26783.10546875
44.9 32.2509727478027
45.0 712.90625
48.8 21.3932476043701
50.0 351.604522705078
50.0 900.613647460938
50.9 215.367431640625
51.0 4813.42236328125
52.0 1665.93212890625
53.0 869.4189453125
53.1 689.631286621094
53.9 77.2451019287109
54.0 2265.5166015625
55.1 3098.66162109375
56.0 3701.46313476563
57.1 2685.40161132813
57.9 102.746269226074
58.0 315.90625
58.8 12.1516256332397
58.9 94.2150268554688
59.0 56.4077224731445
61.0 50.8761329650879
61.1 15.2081022262573
61.9 190.958251953125
62.0 345.190002441406
62.9 97.2721939086914
63.0 2861.82177734375
64.0 1368.51879882813
64.1 75.7893371582031
65.0 15940.625
66.0 3063.1181640625
67.0 1885.05737304688
68.0 3475.85375976563
69.0 172.696487426758
69.1 1634.45825195313
70.1 8881.650390625
71.0 627.907470703125
71.9 77.2174758911133
72.1 58.8546295166016
72.2 45.1499557495117
73.0 95.3364639282227
73.9 44.4017028808594
74.0 446.865203857422
74.8 93.2500305175781
74.9 258.086547851563
75.0 419.655059814453
75.9 160.310134887695
76.1 1294.45495605469
77.0 27483.953125
78.0 7042.61376953125
79.0 9011.07421875
79.9 78.2534866333008
80.0 1699.57507324219
81.0 460.839263916016
81.1 122.808929443359
82.0 2077.35473632813
82.9 88.7594146728516
83.0 237.040710449219
83.1 275.243865966797
83.9 78.5603103637695
84.1 789.823608398438
85.0 149.450454711914
86.0 16.5439205169678
87.0 69.7418518066406
87.1 36.7303504943848
87.9 54.1010093688965
88.2 35.380184173584
89.0 3065.50366210938
89.9 71.7718887329102
90.1 1654.73974609375
90.1 530.41064453125
91.0 47884.86328125
92.0 7284.115234375
93.0 3907.51611328125
94.0 626.871459960938
94.5 766.424072265625
94.6 4711.7353515625
95.2 145.170883178711
95.3 74.3067855834961
96.1 18767.486328125
96.9 63.8139877319336
97.1 2541.7900390625
98.0 312.166870117188
98.1 80.8184127807617
100.2 14.954381942749
101.0 41.376407623291
101.1 57.5064811706543
101.2 17.5869159698486
101.8 24.6641311645508
102.0 603.405090332031
102.1 503.330596923828
103.0 8904.115234375
104.0 11730.2314453125
105.0 22525.158203125
106.0 7901.205078125
107.0 676.38232421875
108.0 118.226226806641
108.2 18.3379287719727
108.9 16.3717269897461
109.0 24.3519821166992
109.1 31.2042655944824
110.1 19.4184131622314
110.8 16.0339412689209
110.9 68.3819885253906
115.0 1501.87219238281
115.1 254.414169311523
115.9 116.741584777832
116.0 446.298370361328
116.1 465.628051757813
117.1 8375.5947265625
118.1 32038.5546875
119.1 8198.650390625
119.9 36.4192352294922
120.0 2156.42822265625
120.9 20.0709171295166
121.0 97.4026794433594
121.1 33.4455528259277
126.8 51.4141731262207
127.0 112.841110229492
127.1 70.8462219238281
127.9 94.041862487793
128.0 534.50634765625
128.1 20.8088397979736
128.9 54.5871849060059
129.1 538.706665039063
129.2 66.7180252075195
130.1 9751.7744140625
131.1 5452.671875
132.1 24967.09375
133.0 402.616119384766
133.1 2907.78588867188
134.1 1233.39697265625
134.9 27.1186389923096
135.1 76.4180221557617
135.2 14.7745094299316
137.0 217.961090087891
137.1 37.0675315856934
139.1 30.2318134307861
139.9 27.8985176086426
140.7 16.25026512146
141.0 56.621509552002
142.0 44.1766471862793
142.1 47.3468360900879
142.9 75.9638900756836
143.0 299.142883300781
143.1 319.666656494141
143.9 250.829849243164
144.1 2892.16577148438
145.0 202.210876464844
145.2 2549.0361328125
146.1 115341.5234375
147.1 13759.7900390625
148.1 2207.75537109375
149.0 152.110626220703
149.2 40.047191619873
152.0 42.6476173400879
153.8 16.9489421844482
155.0 51.2826156616211
155.1 18.2788600921631
155.9 77.4068069458008
156.0 314.919555664063
156.9 66.0137786865234
157.0 76.1598358154297
157.1 69.4751510620117
157.2 25.6305618286133
157.8 15.2098045349121
158.0 844.620666503906
158.6 18.7690200805664
159.0 244.30744934082
159.1 521.963134765625
160.1 4571.625
160.9 119.223846435547
161.1 442.125183105469
161.2 149.268203735352
162.0 16.2344417572021
168.0 21.3616695404053
168.1 19.9665660858154
170.0 17.8905754089355
170.9 22.2663440704346
171.1 14.1092653274536
171.8 36.2948303222656
172.1 33.7488250732422
172.9 72.868537902832
173.0 191.966400146484
173.8 22.8062171936035
174.0 38.8494834899902
174.2 33.5391883850098
175.1 14.4151363372803
175.9 16.7281169891357
176.0 16.2285327911377
178.1 13.8608894348145
180.3 20.1531181335449
180.9 68.7739944458008
181.2 15.5754280090332
182.1 14.7363224029541
182.9 21.5826587677002
183.8 21.4401340484619
184.0 282.659698486328
184.1 255.472366333008
184.2 65.5316467285156
184.9 34.5405006408691
185.1 382.341033935547
185.2 42.985897064209
186.1 918.3720703125
186.2 99.996696472168
187.0 231.101318359375
187.1 1273.03405761719
188.1 1887.66394042969
189.1 98724.109375
190.1 13680.46875
190.9 33.6638832092285
191.0 409.5625
191.1 606.592529296875
201.0 18.6388263702393
203.1 72.3783493041992
207.0 34.9487800598145
210.8 4.74508285522461
211.1 27.1190185546875
214.9 177.674865722656
216.0 6.7504243850708
217.0 15.6299896240234
218.8 69.0770492553711
219.0 8.9286937713623
222.1 13.9860067367554
233.0 69.2626037597656
236.7 62.2754058837891
237.0 124.523796081543
251.1 43.0915870666504
251.2 62.2951774597168
276.9 14.7723932266235
278.0 19.8607406616211
278.1 83.0612335205078
279.0 34.4513206481934
279.1 14.488205909729
280.2 3238.13598632813
281.0 284.040557861328
281.2 286.315521240234
281.3 272.639770507813
282.1 14.0781164169312
