#"+EI Scan (rt: 1.877-1.923 min, 9 scans) MIX1-3.D  Subtract "
#Point,X(Thompsons),Y(Counts)
41.0 1559.47131347656
42.0 6181.9619140625
43.0 3517.88549804688
44.0 308.450073242188
45.0 84.174674987793
50.0 1625.0869140625
51.0 3434.07958984375
52.0 908.364562988281
53.0 1125.69006347656
54.0 745.017272949219
55.0 1347.474609375
56.0 24297.96875
57.0 4270.42138671875
58.1 234179.359375
59.1 8936.263671875
60.0 104.236022949219
60.9 42.8790969848633
62.0 594.301940917969
63.0 2421.12939453125
64.0 752.291748046875
65.0 1806.45483398438
66.0 195.679168701172
66.9 57.3693771362305
71.0 17.8841667175293
72.9 107.588897705078
74.0 653.194641113281
75.0 760.624755859375
76.0 1143.02673339844
77.0 9504.5537109375
78.0 2622.98828125
79.0 6143.67041015625
80.0 479.868316650391
85.0 19.879150390625
86.0 123.801651000977
87.0 153.694976806641
87.1 45.7004432678223
87.6 32.2425994873047
87.7 56.070743560791
88.0 19.5234375
89.0 3744.23046875
90.0 2694.69653320313
91.0 2831.39599609375
92.0 247.188537597656
93.0 20.5703105926514
96.0 18.8011531829834
97.9 19.3714160919189
100.9 17.0203857421875
101.0 128.077255249023
102.0 1023.35815429688
103.0 5153.2685546875
104.0 1676.28930664063
105.0 4654.05908203125
106.0 661.053283691406
115.0 940.667297363281
116.0 332.2900390625
116.1 18.0080223083496
117.0 708.957336425781
118.0 352.193603515625
119.0 1165.10559082031
120.0 164.094390869141
127.0 100.267875671387
127.0 27.7299270629883
128.0 329.619262695313
129.0 196.060104370117
130.0 282.159790039063
130.9 17.725456237793
131.0 519.618835449219
132.0 536.505432128906
133.0 5856.103515625
134.0 804.830871582031
135.0 84.7210998535156
142.9 43.6656150817871
143.1 17.7702293395996
144.0 350.925354003906
145.0 121.60546875
146.0 509.9296875
146.9 20.3448734283447
147.0 701.044677734375
148.1 1205.11364746094
158.0 166.941329956055
160.0 750.620544433594
161.0 407.193115234375
162.0 267.34716796875
172.0 17.1092567443848
173.0 36.2105026245117
174.0 143.177993774414
175.0 193.002624511719
176.1 422.442108154297
177.0 34.753173828125
188.1 17.2674884796143
189.1 17.2488555908203
190.1 46.722412109375
191.0 110.893135070801
208.0 122.050842285156
