#"+EI Scan (rt: 2.040-2.081 min, 8 scans) MIX1-7.D  Subtract "
#Point,X(Thompsons),Y(Counts)
41.0 468.323364257813
42.0 4145.44921875
43.0 619.211364746094
44.0 15211.990234375
45.0 471.469635009766
50.0 1270.85913085938
51.0 815.923400878906
51.9 93.8159866333008
53.0 104.14917755127
54.0 192.807968139648
55.0 387.562225341797
56.0 2424.421875
57.0 398.433654785156
58.0 816.242797851563
60.9 87.3582000732422
61.9 21.0661945343018
63.0 201.895614624023
65.0 42.603084564209
68.0 95.5117950439453
68.9 42.0897789001465
69.1 44.9557876586914
70.0 3217.2392578125
71.0 24.4365844726563
71.1 431.982727050781
72.1 42046.3984375
73.1 2297.02197265625
74.0 691.926330566406
75.0 2995.73168945313
76.0 764.749267578125
77.0 844.2646484375
78.0 148.405776977539
79.0 149.513732910156
83.9 39.6321182250977
84.9 420.771484375
85.9 39.8637466430664
86.8 21.705379486084
86.9 101.450401306152
89.0 250.990386962891
90.9 74.4524993896484
91.0 179.916030883789
95.9 33.3378486633301
100.9 25.9053916931152
101.9 79.4784851074219
103.0 453.020965576172
104.0 94.7160110473633
105.0 223.686767578125
110.0 24.9052085876465
111.0 4175.22802734375
111.9 443.982971191406
113.0 1434.83666992188
113.9 110.795028686523
115.0 242.73747253418
115.9 23.3174476623535
117.0 55.8689460754395
119.0 85.5107040405273
124.9 361.258666992188
126.9 105.480461120605
128.0 20.6218376159668
130.0 41.3857688903809
131.0 258.286926269531
132.1 21.2517776489258
133.0 477.863647460938
134.0 19.2061023712158
138.0 30.3021125793457
139.0 2452.1552734375
139.9 39.9075965881348
139.9 205.371154785156
140.9 811.2392578125
141.9 42.7881774902344
145.9 43.0513000488281
161.0 47.2536087036133
161.0 48.1271057128906
166.0 125.554740905762
166.9 45.1114730834961
167.9 76.5816192626953
168.0 243.296997070313
169.9 20.2160491943359
186.1 21.8415966033936
190.9 30.8871841430664
195.9 19.2763957977295
207.0 63.5148315429688
207.9 7.63059234619141
208.0 71.2381362915039
208.9 75.5628128051758
