#"+EI Scan (rt: 3.194-3.241 min, 9 scans) MIX1-10.D  Subtract "
#Point,X(Thompsons),Y(Counts)
41.0 1113.34167480469
42.0 1737.44116210938
43.0 1427.05639648438
44.0 15835.0810546875
45.0 464.508666992188
50.0 127.382049560547
51.0 219.849349975586
51.9 19.2751178741455
53.0 247.8876953125
55.0 264.952117919922
56.0 414.517700195313
57.0 157.633804321289
57.1 21.541711807251
58.0 97.4055480957031
61.0 56.2021217346191
62.0 384.544311523438
63.0 1367.74743652344
64.0 195.14469909668
65.0 1878.26647949219
66.0 129.388397216797
68.0 82.8108825683594
69.0 18.9803504943848
70.0 971.621520996094
71.0 125.463539123535
73.9 18.643440246582
75.0 17.2355918884277
77.0 174.157653808594
79.0 91.4236755371094
84.0 1336.4130859375
85.1 233.712753295898
86.1 23029.896484375
87.1 1424.7119140625
88.9 55.8246116638184
91.0 1051.72668457031
92.0 136.512237548828
93.0 95.2942276000977
95.0 16.9296493530273
96.0 6.37062454223633
103.0 17.7252216339111
104.9 21.4140090942383
118.0 19.5485210418701
119.0 393.699371337891
120.0 151.110473632813
121.0 1535.89013671875
122.0 168.349395751953
132.8 17.8983192443848
133.0 1.2445068359375
134.9 98.3552398681641
146.0 172.219253540039
146.9 128.160583496094
148.0 165.973937988281
149.0 3017.95141601563
150.0 454.447387695313
176.0 17.2356300354004
177.0 35.7781448364258
178.0 115.745971679688
192.0 145.875381469727
207.0 51.6119995117188
207.9 56.4635429382324
