#"+EI Scan (rt: 1.393-1.434 min, 8 scans) MIX2-1.D  Subtract "
#Point,X(Thompsons),Y(Counts)
41.0 1011.10900878906
42.0 4295.61865234375
43.0 3962.98828125
44.0 322.038696289063
45.0 216.551910400391
47.4 25.1657543182373
49.0 157.818450927734
50.0 1867.00805664063
51.0 1774.79248046875
52.0 317.950927734375
53.0 404.075317382813
54.0 679.688049316406
55.0 1164.49731445313
56.1 15342.859375
57.0 2526.9853515625
58.1 89737.984375
59.1 3369.455078125
59.9 20.2538566589355
60.0 85.1600799560547
60.9 58.1866111755371
61.0 135.014251708984
62.0 361.297241210938
63.0 691.050537109375
64.0 198.227905273438
65.0 280.531616210938
65.9 56.6760711669922
66.9 52.6839561462402
67.0 64.4003753662109
68.0 494.200378417969
69.0 1113.33435058594
70.0 306.058990478516
70.9 30.2018718719482
71.0 61.4416351318359
73.0 181.882904052734
74.0 1435.22705078125
75.0 6633.6416015625
76.0 982.838256835938
77.0 2649.33984375
78.0 559.67919921875
79.0 2176.5166015625
80.0 179.131408691406
81.0 235.18815612793
82.0 62.7748641967773
83.0 268.765777587891
83.9 85.1660003662109
85.0 197.624938964844
86.0 137.435913085938
86.9 138.436676025391
88.0 21.8915710449219
89.0 713.08984375
90.0 256.139038085938
91.0 544.450927734375
92.0 177.989868164063
93.0 224.121429443359
94.0 948.409545898438
95.0 10704.4931640625
96.0 1260.21472167969
97.0 329.141082763672
98.0 85.7397308349609
98.9 72.8953247070313
101.0 314.511901855469
102.0 273.8681640625
103.0 2203.298828125
104.0 610.9814453125
105.0 3285.27734375
106.0 255.96728515625
107.0 413.870727539063
108.0 162.003311157227
109.0 728.438659667969
110.0 112.197067260742
111.0 1624.02685546875
111.8 60.7398529052734
111.9 106.576950073242
112.9 530.805847167969
113.9 36.4765892028809
115.0 877.0029296875
116.0 156.707000732422
117.0 0.282958984375
118.0 55.4567718505859
118.9 89.2143402099609
120.0 138.533447265625
121.0 303.556549072266
122.0 307.086578369141
123.0 4757.4384765625
124.0 483.590881347656
125.0 43.2841377258301
126.9 18.9458408355713
128.0 59.6338500976563
129.0 43.2096862792969
129.9 11.1856803894043
131.0 143.134582519531
132.0 55.5059814453125
133.0 12741.953125
134.0 1398.15966796875
135.0 389.12060546875
135.9 32.6149406433105
136.0 167.074554443359
137.0 79.1057434082031
138.0 384.622924804688
139.0 3440.91479492188
139.9 293.287811279297
140.9 922.463256835938
141.9 81.8090972900391
143.0 10.4145660400391
145.1 19.7137680053711
146.0 22.1714115142822
147.0 10.1448745727539
148.0 257.463256835938
149.0 290.683410644531
150.0 607.4111328125
151.0 621.663940429688
152.0 237.015960693359
157.9 19.4212131500244
161.0 50.6543426513672
162.0 100.55078125
163.0 21.3933792114258
164.0 133.157257080078
165.0 211.407775878906
166.0 694.723083496094
167.0 89.8056182861328
175.9 20.7425384521484
176.9 19.3002147674561
178.0 77.8613357543945
178.9 42.0384368896484
180.0 101.116668701172
180.9 22.9541339874268
181.9 48.3082122802734
182.0 41.9347229003906
190.9 20.1746273040771
207.0 10.075927734375
208.9 24.3070087432861
