#"+EI Scan (rt: 1.393-1.434 min, 8 scans) MIX2-8.D  Subtract "
#Point,X(Thompsons),Y(Counts)
41.0 1079.01794433594
42.0 4670.65478515625
43.0 4397.9130859375
44.0 282.263916015625
45.0 178.460968017578
47.5 21.6582527160645
48.9 153.588272094727
50.0 1937.34375
51.0 1678.64990234375
52.0 255.478393554688
53.0 365.9736328125
54.0 650.540954589844
55.0 1070.740234375
56.1 15083.125
57.0 2634.11596679688
58.1 98163.9140625
59.1 3718.39013671875
60.0 91.6608123779297
61.0 214.263427734375
62.0 376.572387695313
63.0 832.330810546875
64.0 213.188537597656
65.0 221.317016601563
65.9 48.0446319580078
67.0 77.8681335449219
68.0 640.902160644531
69.0 1277.81262207031
70.0 403.528503417969
71.0 61.6409149169922
72.9 200.270477294922
74.0 1342.80541992188
75.0 7218.6591796875
76.0 1012.82678222656
77.0 2874.5498046875
78.0 670.399169921875
79.0 2352.8125
80.0 221.125915527344
81.0 252.599975585938
81.9 26.1048698425293
82.0 50.1057586669922
83.0 257.183166503906
84.0 47.2699890136719
85.0 137.570358276367
85.9 86.5587158203125
87.0 145.543609619141
88.0 73.6744003295898
89.0 761.47509765625
90.0 232.308471679688
91.0 594.371337890625
92.0 237.278228759766
93.0 283.511352539063
94.0 1031.02209472656
95.0 11560.908203125
96.0 1437.58752441406
97.0 321.979125976563
98.0 90.3304901123047
98.9 60.6005897521973
99.9 19.1172523498535
101.0 355.5166015625
102.0 308.689453125
103.0 2237.3681640625
104.0 622.188720703125
105.0 3635.845703125
106.0 316.831420898438
107.0 382.529602050781
108.0 178.51383972168
109.0 850.251281738281
110.0 120.702865600586
111.0 1762.49792480469
111.9 152.581649780273
113.0 539.74365234375
114.0 36.375804901123
115.0 970.51318359375
116.0 148.090484619141
117.0 27.3239135742188
118.0 66.9806365966797
119.0 92.2382507324219
119.9 137.922729492188
121.0 316.882720947266
122.0 302.781951904297
123.0 4935.16845703125
124.0 533.484069824219
124.9 26.7922592163086
128.0 95.8024597167969
129.0 86.7079925537109
130.0 20.9374504089355
131.0 58.8005981445313
132.0 146.257446289063
133.0 14442.88671875
134.0 1515.28662109375
135.0 377.015014648438
136.0 250.199005126953
137.0 38.118896484375
138.0 395.719299316406
139.0 3256.0244140625
140.0 296.085113525391
140.9 1061.36535644531
141.9 124.017295837402
143.0 68.5775146484375
146.9 21.0420150756836
147.0 83.9722137451172
148.0 232.017425537109
149.0 233.384002685547
150.0 560.888305664063
151.0 738.433532714844
152.0 254.256469726563
155.9 17.1076049804688
156.0 20.2891082763672
161.0 33.600341796875
162.0 103.720390319824
163.0 24.4111881256104
164.0 84.8937683105469
165.0 259.709320068359
166.0 781.351440429688
167.0 88.4899826049805
176.0 49.9308471679688
178.0 109.46752166748
179.0 21.7603912353516
180.0 90.8357543945313
181.1 22.3986988067627
182.0 68.3188705444336
208.0 62.4230499267578
