#"+EI Scan (rt: 1.393-1.434 min, 8 scans) MIX2-4.D  Subtract "
#Point,X(Thompsons),Y(Counts)
41.0 1140.79650878906
42.0 4460.1943359375
43.0 4261.3701171875
44.0 328.168212890625
45.0 130.628326416016
47.7 26.449764251709
49.0 172.094467163086
50.0 1979.25512695313
51.0 1728.80004882813
52.0 320.701782226563
53.0 336.25927734375
54.0 645.84033203125
55.0 1185.89013671875
56.0 15525.8916015625
57.1 2445.20532226563
58.1 96055.828125
59.1 3570.40625
60.0 90.3401031494141
61.0 203.658905029297
62.0 440.669616699219
63.0 685.88232421875
64.0 146.068420410156
65.0 234.859497070313
66.0 28.6553344726563
67.2 21.0024909973145
68.0 634.324890136719
69.0 1287.31506347656
70.0 430.027221679688
71.0 110.693954467773
73.0 241.199188232422
74.0 1447.12573242188
75.0 7296.5703125
76.0 1053.58679199219
77.0 2900.67578125
78.0 623.683837890625
79.0 2579.57421875
80.0 231.045959472656
81.0 242.0087890625
81.9 27.6254959106445
82.0 54.8995971679688
83.0 257.621368408203
84.0 91.496337890625
85.0 164.655807495117
86.0 125.499694824219
86.9 147.367126464844
87.9 71.6949615478516
89.0 684.689697265625
90.0 328.427978515625
91.0 631.500732421875
92.0 235.866912841797
93.0 272.137481689453
94.0 1032.62097167969
95.0 11738.3564453125
96.0 1341.74914550781
97.0 357.182464599609
97.9 21.3201751708984
98.1 57.247615814209
98.9 121.928863525391
100.0 20.2796421051025
101.0 379.547698974609
102.0 393.008911132813
103.0 2210.08984375
104.0 509.5703125
105.0 3345.615234375
106.0 352.931030273438
107.0 410.593658447266
108.0 170.858917236328
109.0 842.601806640625
109.9 127.72639465332
111.0 1713.79284667969
111.9 134.054733276367
112.9 592.818908691406
114.0 47.6156692504883
114.1 23.9569492340088
115.0 824.662109375
116.0 145.991577148438
117.0 62.5767974853516
117.9 79.9686889648438
119.0 53.5953063964844
120.0 138.533538818359
121.0 285.636566162109
122.0 302.239807128906
123.0 5064.69970703125
124.0 580.621948242188
125.0 61.1722259521484
128.0 78.3665466308594
129.0 103.638671875
129.9 19.907299041748
131.0 131.3427734375
132.0 255.625
133.0 13887.71875
134.0 1415.02490234375
135.0 386.159912109375
136.0 233.626129150391
137.0 54.7739791870117
138.0 447.495147705078
139.0 3286.5654296875
139.9 353.788665771484
141.0 1163.79479980469
141.9 140.767974853516
144.9 19.4191398620605
147.0 43.0635948181152
148.0 229.241180419922
149.0 256.719329833984
150.0 528.186889648438
151.0 669.968200683594
152.0 280.899810791016
155.9 89.7439575195313
161.0 53.1460800170898
162.0 131.360717773438
164.0 107.670532226563
165.0 285.998138427734
166.0 777.754028320313
167.0 65.4669952392578
176.0 2.69102478027344
178.0 110.06143951416
180.0 130.715606689453
181.0 42.3133316040039
181.9 56.5659065246582
207.0 66.9260864257813
208.0 27.5061645507813
