#"+EI Scan (rt: 1.393-1.434 min, 8 scans) MIX2-9.D  Subtract "
#Point,X(Thompsons),Y(Counts)
41.0 1160.93127441406
42.0 4171.5107421875
43.0 4062.6513671875
44.0 264.442749023438
45.0 118.009399414063
47.6 39.9568862915039
49.0 128.626449584961
50.0 1921.74682617188
51.0 1622.20849609375
52.0 271.3759765625
53.0 284.167602539063
54.0 635.187072753906
55.0 1165.07275390625
56.1 14336.0751953125
57.0 2429.09252929688
58.1 91467.765625
59.1 3392.8896484375
60.0 54.5389251708984
61.0 179.426208496094
62.0 347.779541015625
63.0 872.345703125
64.0 140.012756347656
65.0 175.281860351563
65.9 50.7592544555664
67.0 27.803466796875
67.1 50.572509765625
68.0 646.866271972656
69.0 1192.63000488281
70.0 408.388763427734
71.0 80.5796737670898
73.0 224.979644775391
74.0 1257.26684570313
75.0 6616.29296875
76.0 963.143920898438
77.0 2527.099609375
78.0 607.58154296875
79.0 2226.291015625
80.0 166.920227050781
80.9 213.126342773438
82.0 118.24382019043
83.0 255.150115966797
83.9 78.3421020507813
84.9 152.876190185547
86.0 114.227325439453
87.0 126.558166503906
87.9 30.6493530273438
89.0 595.416259765625
90.0 202.246948242188
91.0 547.19140625
92.0 199.477722167969
93.0 257.267578125
94.0 975.679321289063
95.0 10813.5927734375
96.0 1379.3740234375
97.0 287.676544189453
97.9 38.3788909912109
99.0 82.1949234008789
99.9 38.3326416015625
101.0 322.488098144531
102.0 247.518676757813
103.0 2059.439453125
104.0 466.159423828125
105.0 2850.546875
106.0 326.065063476563
107.0 362.288421630859
107.9 144.052047729492
109.0 692.09375
110.0 107.942276000977
111.0 1643.03173828125
111.9 134.477310180664
112.9 556.483459472656
113.8 21.0584030151367
114.0 41.6252326965332
115.0 915.50927734375
116.0 151.952606201172
117.0 26.0771942138672
118.0 60.8967590332031
119.0 54.87060546875
120.0 116.359954833984
121.0 263.928375244141
121.9 24.0760498046875
122.0 256.109161376953
123.0 4760.994140625
124.0 512.251831054688
125.0 66.2171859741211
126.9 19.3818092346191
128.0 62.7537231445313
128.9 31.2383289337158
130.0 19.4730529785156
131.0 178.705993652344
132.0 138.106079101563
133.0 12506.8828125
134.0 1314.80859375
135.0 402.437866210938
136.0 254.298522949219
136.9 28.0699787139893
137.0 44.6662750244141
138.0 398.802917480469
139.0 3083.88671875
139.9 253.255096435547
140.9 1031.56713867188
141.9 57.223876953125
142.9 22.1164398193359
143.0 39.6274375915527
144.0 20.002513885498
146.9 39.1755752563477
148.0 202.351165771484
149.0 253.726776123047
150.0 508.382446289063
151.0 696.342895507813
152.0 223.174835205078
155.9 49.7378387451172
161.0 68.8422241210938
162.0 119.303695678711
163.0 19.8756504058838
164.0 105.897552490234
165.0 300.814147949219
166.0 706.943176269531
166.9 45.4656944274902
177.1 20.1071300506592
178.0 112.45352935791
180.0 92.7880706787109
181.0 46.1350860595703
181.9 48.3794441223145
207.0 80.2618408203125
