#"+EI Scan (rt: 1.719-1.766 min, 9 scans) MIX2-1.D  Subtract "
#Point,X(Thompsons),Y(Counts)
41.0 1972.67004394531
42.0 7731.6865234375
43.0 5373.25341796875
44.0 804.682006835938
45.0 220.093200683594
49.0 42.8873023986816
50.0 2020.04479980469
51.0 5859.66162109375
52.0 1534.05053710938
53.0 1517.05712890625
54.0 1096.97802734375
55.0 1896.09265136719
56.0 41573.3984375
57.1 6292.47216796875
58.1 341103.5625
59.1 12920.2392578125
60.0 208.632507324219
60.9 121.188125610352
62.0 937.375671386719
63.0 3626.22875976563
64.0 1021.09387207031
65.0 2342.5322265625
65.9 356.116363525391
66.8 48.9783515930176
67.0 87.8784713745117
69.0 35.9228897094727
69.1 35.9362945556641
70.0 82.3256988525391
70.1 26.2140045166016
70.9 104.035926818848
71.1 70.0233688354492
71.2 33.5689582824707
71.8 25.8568305969238
71.9 19.8332595825195
72.1 80.3786315917969
72.8 69.5258483886719
73.0 170.293762207031
74.0 996.837768554688
75.0 1235.115234375
76.0 1573.17724609375
77.0 15459.583984375
78.0 5139.6376953125
79.0 8783.6630859375
80.1 731.727966308594
80.9 43.2326507568359
82.9 17.9231376647949
84.1 18.6804428100586
84.9 20.0985698699951
85.1 19.8662796020508
85.9 166.639892578125
86.0 34.4313201904297
87.0 335.67578125
88.0 136.181427001953
88.1 16.8077583312988
89.0 4552.5615234375
90.0 2401.048828125
91.0 4486.455078125
92.0 527.530517578125
93.0 45.2869300842285
95.0 37.3046264648438
98.0 105.570053100586
101.0 394.979187011719
102.0 1959.70141601563
103.0 8503.232421875
104.0 4308.7822265625
105.0 5420.24072265625
106.0 781.229064941406
107.0 196.334289550781
112.9 62.8232879638672
113.9 75.7556457519531
115.0 4487.84619140625
116.0 1204.7333984375
117.0 1954.01843261719
118.0 712.993896484375
119.0 1255.28283691406
120.0 195.218627929688
126.0 96.8925170898438
127.0 758.840270996094
128.0 1399.62463378906
129.0 824.272033691406
130.0 685.390625
131.0 1557.70068359375
132.0 869.903015136719
133.0 7502.1015625
134.0 1134.44177246094
135.0 182.168518066406
139.0 65.1878051757813
141.0 270.001617431641
141.9 53.8235015869141
142.0 78.900016784668
143.0 456.967010498047
144.0 775.119445800781
145.0 1765.1064453125
146.0 1034.59033203125
147.0 444.748443603516
147.9 35.9803504943848
148.0 424.173706054688
148.9 129.893371582031
149.1 34.7297515869141
150.0 99.3915786743164
156.0 138.328125
157.0 194.684768676758
158.0 645.152465820313
159.0 349.238098144531
160.1 1180.93017578125
161.0 388.655029296875
161.9 27.7589588165283
162.0 124.958290100098
163.0 22.1133308410645
163.1 18.0394859313965
172.1 84.4430694580078
173.0 67.4028701782227
174.0 195.339965820313
175.0 183.240631103516
176.0 371.866271972656
180.0 21.7880096435547
189.0 111.785385131836
190.1 17.8848457336426
190.9 16.7449855804443
191.0 239.701354980469
207.0 109.629211425781
207.9 121.8642578125
209.0 18.1660614013672
