#"+EI Scan (rt: 1.719-1.766 min, 9 scans) MIX2-7.D  Subtract "
#Point,X(Thompsons),Y(Counts)
40.0 126.323554992676
41.0 2133.44946289063
42.0 7857.26806640625
43.0 5429.0986328125
44.0 828.586059570313
45.0 119.900024414063
50.0 2091.72778320313
51.0 5948.85302734375
52.0 1499.19653320313
53.0 1560.57568359375
54.0 1010.73504638672
55.0 1906.73095703125
56.0 38962.3359375
57.1 6002.87548828125
58.1 345135.3125
59.1 13088.396484375
60.0 176.521759033203
61.0 146.021667480469
62.0 973.388427734375
63.0 3605.75439453125
64.0 1017.38781738281
65.0 2339.94555664063
65.9 121.746124267578
66.0 234.872589111328
66.9 42.3600654602051
67.0 65.2536392211914
68.0 18.6112689971924
70.0 121.267684936523
71.0 188.416046142578
71.1 84.1112442016602
71.8 53.9487571716309
71.9 24.8062019348145
72.0 59.7553100585938
72.3 24.8721408843994
72.8 99.6101989746094
72.9 82.743537902832
73.0 55.9473114013672
74.0 985.050231933594
75.0 1232.04541015625
76.0 1501.49328613281
77.0 15490.3681640625
78.0 5235.25244140625
79.0 8835.3408203125
79.9 23.4215393066406
80.0 657.804138183594
80.8 17.9264888763428
80.9 18.4487762451172
83.0 16.8175888061523
83.9 18.149055480957
84.1 17.5597038269043
85.0 59.3644752502441
86.0 212.785095214844
86.9 77.3836669921875
87.0 276.047454833984
87.9 126.286712646484
88.1 24.193904876709
89.0 4683.75244140625
90.0 2333.57446289063
91.0 4508.76318359375
91.9 76.8525161743164
92.0 395.1455078125
93.0 56.1238746643066
94.0 17.3915119171143
95.8 18.391092300415
96.0 25.7360095977783
97.9 41.5027503967285
98.1 44.4751396179199
101.0 365.383728027344
102.0 1958.62744140625
103.0 8461.7138671875
104.0 4381.4697265625
105.0 5678.23193359375
106.0 791.388427734375
107.0 177.945495605469
113.0 67.9384231567383
113.9 40.4554595947266
114.0 62.3307151794434
115.0 4410.2587890625
116.0 1220.03210449219
117.0 2040.14282226563
117.9 75.6365585327148
118.0 646.119567871094
119.0 1293.11364746094
120.0 210.738082885742
126.0 95.6120452880859
127.0 746.558837890625
128.0 1288.18933105469
129.0 841.455383300781
130.0 697.889099121094
131.0 1589.794921875
132.0 926.810791015625
133.0 7595.30615234375
134.0 1075.12658691406
135.0 255.400817871094
138.9 82.3500671386719
140.0 16.7837944030762
141.0 244.851593017578
142.0 132.162719726563
143.0 465.990447998047
144.0 769.654052734375
145.0 1744.34704589844
146.0 1027.6669921875
147.0 449.851898193359
148.0 415.780670166016
148.8 19.7076721191406
149.0 147.336059570313
150.0 52.1737823486328
156.0 123.514678955078
157.0 124.102851867676
157.1 76.1206207275391
158.0 606.180480957031
159.0 352.559753417969
160.0 1123.18518066406
161.0 355.784484863281
162.0 136.798446655273
162.9 17.6876354217529
172.0 89.5798721313477
173.0 91.6447448730469
174.0 193.099914550781
175.0 212.072296142578
176.0 341.308990478516
189.0 105.133560180664
191.0 154.310913085938
191.1 42.5601844787598
207.9 18.2760391235352
208.0 117.726303100586
209.0 18.2588672637939
