#"+EI Scan (rt: 1.719-1.766 min, 9 scans) MIX2-9.D  Subtract "
#Point,X(Thompsons),Y(Counts)
41.0 2017.64086914063
42.0 7880.873046875
43.0 5356.646484375
44.0 844.00537109375
45.0 156.582580566406
45.0 54.8744354248047
50.0 2009.66223144531
51.0 5749.8896484375
52.0 1497.57922363281
53.0 1553.806640625
54.0 1052.958984375
55.0 1901.95642089844
56.0 38423.65234375
57.1 6023.412109375
58.1 344270.75
59.1 13063.3642578125
60.0 203.586318969727
60.9 124.040313720703
62.0 943.503051757813
63.0 3631.95263671875
64.0 1008.35491943359
65.0 2462.2998046875
66.0 346.395324707031
66.9 41.6437225341797
67.1 48.7632637023926
67.9 35.8744201660156
68.9 34.9675903320313
69.1 18.3623123168945
70.0 129.364074707031
71.0 229.506072998047
71.8 19.8035411834717
72.1 91.3938674926758
72.9 131.574035644531
73.1 65.68603515625
74.0 1003.01000976563
75.0 1165.04919433594
76.0 1586.74780273438
77.0 15900.0703125
78.0 4941.94189453125
79.0 8824.5595703125
80.0 739.730224609375
84.0 39.085277557373
85.0 40.0968894958496
86.0 214.64372253418
86.9 340.370727539063
87.9 163.280685424805
89.0 4677.71630859375
90.0 2428.46850585938
91.0 4500.84423828125
92.0 424.641845703125
92.1 30.8290748596191
93.0 64.5851974487305
95.8 17.5016250610352
98.0 72.6567230224609
101.0 357.250732421875
102.0 1923.76452636719
103.0 8566.6689453125
104.0 4422.9052734375
105.0 5557.904296875
106.0 800.532653808594
107.0 186.377975463867
113.0 71.1118011474609
113.9 42.9160919189453
114.1 21.7563896179199
115.0 4495.44140625
116.0 1201.74816894531
117.0 2073.8349609375
118.0 745.611206054688
119.0 1227.48559570313
120.0 206.158584594727
126.0 50.7486381530762
127.0 742.040344238281
128.0 1404.24267578125
129.0 226.809509277344
129.0 646.610046386719
130.0 711.876770019531
131.0 1420.49658203125
132.0 944.24462890625
133.0 7495.13525390625
134.0 1167.65539550781
135.0 259.035705566406
139.0 67.0653228759766
141.0 248.331893920898
142.0 136.188598632813
143.0 440.539855957031
144.0 779.047607421875
145.0 1764.40161132813
146.0 1011.87670898438
147.0 508.199432373047
148.0 341.231323242188
148.9 157.074020385742
149.0 17.9677715301514
150.0 48.3488159179688
155.9 104.548599243164
156.0 28.8496932983398
157.0 203.475189208984
158.0 662.885498046875
159.0 367.625854492188
160.0 1080.24877929688
161.0 470.617736816406
162.0 149.015090942383
163.0 40.3005828857422
172.0 77.9669494628906
173.0 84.2772903442383
174.0 166.97868347168
175.0 32.4497985839844
175.1 138.484268188477
176.0 467.654937744141
189.1 96.0330505371094
190.8 18.8927402496338
191.0 62.4874000549316
191.0 126.112655639648
