#"+EI Scan (rt: 1.912-1.964 min, 10 scans) MIX2-2.D  Subtract "
#Point,X(Thompsons),Y(Counts)
41.0 490.77099609375
42.0 1694.86840820313
43.0 1148.18005371094
45.0 34.0176010131836
49.9 359.120971679688
51.0 1111.43664550781
51.9 17.3143520355225
52.0 500.79541015625
53.0 713.881225585938
54.0 308.467163085938
55.0 337.505859375
56.0 10425.884765625
57.0 1445.93920898438
58.1 75326.640625
59.0 2820.0556640625
60.0 15.1229858398438
60.9 37.6585464477539
62.0 423.713806152344
63.0 1363.15185546875
64.0 329.025604248047
65.0 1899.86511230469
65.9 24.9055690765381
66.0 152.777038574219
66.1 39.3996658325195
66.8 16.6116523742676
66.9 38.4729232788086
71.0 33.4814682006836
73.9 231.20149230957
74.9 168.330429077148
75.8 16.6381492614746
76.0 257.895629882813
77.0 3637.970703125
78.0 1390.1884765625
79.0 2254.89697265625
80.0 166.890975952148
80.8 19.2228755950928
85.9 16.8039531707764
86.8 17.2652206420898
87.0 47.2774429321289
90.0 70.0316543579102
91.0 1377.72998046875
92.0 197.708648681641
95.8 16.8059463500977
96.0 55.2925796508789
98.9 17.1890258789063
101.0 16.378870010376
102.0 499.007263183594
103.0 2267.65258789063
104.0 664.223327636719
105.0 2780.5166015625
106.0 456.159484863281
107.0 125.49153137207
115.0 504.878326416016
116.0 208.44612121582
116.9 19.7884979248047
117.0 324.157745361328
118.0 115.36833190918
119.0 457.341247558594
120.0 64.9797286987305
120.9 319.70654296875
127.0 69.4494476318359
127.9 86.3168563842773
128.0 209.143402099609
129.0 177.959747314453
130.0 112.342308044434
131.0 169.516784667969
131.9 121.491027832031
133.0 2326.24340820313
134.0 322.942810058594
135.0 38.1419067382813
143.0 15.6274976730347
143.9 38.9241714477539
144.0 145.335296630859
145.0 244.158645629883
146.0 311.101226806641
147.0 34.0223236083984
148.0 171.659652709961
149.0 4489.072265625
150.0 416.953552246094
150.9 19.8506298065186
158.0 94.355224609375
159.0 66.9888763427734
160.0 78.8389205932617
161.0 110.932861328125
172.0 15.7961959838867
174.0 270.221435546875
175.1 70.9715042114258
176.0 91.7284088134766
189.0 70.3570098876953
192.0 354.220855712891
207.0 41.8228759765625
208.0 145.382278442383
