#"+EI Scan (rt: 2.763-2.809 min, 9 scans) MIX2-7.D  Subtract "
#Point,X(Thompsons),Y(Counts)
41.0 1162.36938476563
42.0 7075.15625
43.0 1963.20947265625
44.0 36434.90625
45.0 1102.21984863281
50.0 801.672668457031
51.0 1501.91748046875
52.0 400.556518554688
53.0 1485.61706542969
54.0 447.835418701172
55.0 1130.34387207031
56.0 4498.298828125
57.0 744.673034667969
58.0 234.595809936523
61.0 475.752990722656
62.0 1997.40771484375
63.0 6653.7333984375
64.0 1617.03771972656
65.0 12978.5966796875
66.0 1074.75378417969
67.0 198.084762573242
68.0 326.666198730469
68.9 22.140531539917
69.0 236.308624267578
70.0 5305.4765625
71.1 1384.86486816406
72.1 151038.375
73.1 7462.99755859375
74.0 739.396728515625
75.0 461.098358154297
76.0 383.826690673828
77.0 1129.2021484375
78.0 355.867340087891
79.0 460.155822753906
79.9 94.0919494628906
80.9 27.6569137573242
81.0 37.9838066101074
85.0 18.6318111419678
87.9 17.1098728179932
89.0 441.653442382813
90.0 326.020538330078
91.0 4313.54443359375
92.0 1388.59558105469
93.0 315.837097167969
93.0 414.462493896484
94.0 125.935821533203
94.8 26.3968372344971
95.0 142.990249633789
95.9 36.3059387207031
96.1 17.172924041748
101.2 18.9608058929443
102.0 172.878829956055
102.9 127.516738891602
103.0 366.099761962891
103.9 47.097713470459
104.0 224.171737670898
105.0 393.734832763672
106.0 104.989402770996
106.1 16.8707332611084
107.0 379.750762939453
108.0 77.3183746337891
114.9 20.5088081359863
116.0 19.0221881866455
117.0 168.453033447266
118.0 304.928466796875
119.0 1173.80859375
119.9 25.4949531555176
120.0 708.364440917969
121.0 3628.42065429688
122.0 1128.16357421875
123.0 190.225479125977
131.0 303.08056640625
131.9 194.330139160156
132.9 213.219268798828
133.9 129.395492553711
135.0 1846.2841796875
136.0 269.930328369141
144.0 38.8567276000977
146.0 415.144653320313
146.9 217.831359863281
147.0 323.872222900391
148.0 472.225708007813
149.0 15378.826171875
150.0 1874.71923828125
151.0 286.612213134766
159.0 23.1174812316895
159.9 17.8648509979248
160.0 20.4358043670654
162.0 92.1301956176758
163.0 17.8289127349854
175.0 57.2125663757324
176.0 287.922729492188
177.0 243.846008300781
177.9 46.6501121520996
178.0 1751.28491210938
179.0 150.104370117188
190.0 62.7782669067383
190.9 35.5189819335938
204.1 21.1840896606445
205.1 37.804801940918
206.0 175.874984741211
207.9 16.2685546875
220.1 335.354187011719
221.1 147.426513671875
