#"+EI Scan (rt: 3.981-4.028 min, 9 scans) MIX2-3.D  Subtract "
#Point,X(Thompsons),Y(Counts)
41.0 806.354736328125
42.0 3932.49829101563
43.0 1023.83770751953
44.0 1237.83825683594
45.0 193.476379394531
46.0 213.322570800781
50.0 228.69255065918
51.0 457.285034179688
52.0 92.975830078125
53.0 506.481170654297
54.0 158.273254394531
55.0 1520.42626953125
56.0 2856.78125
57.0 898.806701660156
58.0 6852.20263671875
59.0 257.702941894531
60.9 85.0977401733398
62.0 641.414306640625
63.0 2349.41479492188
64.0 353.482635498047
65.0 3382.455078125
66.0 277.894195556641
66.9 48.4493751525879
67.0 49.2932167053223
68.0 418.190673828125
68.9 20.9096870422363
69.0 121.600112915039
70.1 1771.59606933594
71.1 5437.0146484375
72.0 1978.67358398438
73.0 168.324401855469
73.8 47.8449516296387
74.0 62.5723342895508
75.0 66.2263488769531
75.9 89.547248840332
77.0 462.273040771484
77.9 46.2013816833496
78.0 75.9017105102539
79.0 268.764465332031
80.0 18.0644683837891
80.9 20.0772895812988
82.0 262.675354003906
83.0 171.382049560547
84.0 1535.05358886719
85.0 295.833221435547
86.0 119.418403625488
88.9 107.405410766602
89.0 32.5048713684082
90.0 57.5558815002441
91.0 1334.16821289063
92.0 234.992263793945
95.9 108.321014404297
96.0 38.6004905700684
98.1 803.228698730469
99.1 394.562622070313
100.1 92543.921875
101.1 6487.65771484375
102.1 144.869567871094
102.2 122.647491455078
102.8 77.5654830932617
103.0 138.338104248047
104.0 76.1202697753906
105.0 240.925354003906
115.0 119.920936584473
117.0 92.8692932128906
118.0 45.1584281921387
118.9 449.486236572266
120.0 322.719390869141
121.0 2965.01586914063
121.9 214.060623168945
122.0 136.536315917969
131.0 70.9327392578125
132.0 76.4322509765625
132.9 161.906188964844
134.0 17.3835983276367
135.0 981.115234375
136.0 78.7438659667969
145.0 66.8644561767578
146.0 75.3830184936523
147.0 410.706237792969
147.9 24.394359588623
148.0 128.231307983398
149.0 4012.55078125
150.0 439.027679443359
160.0 37.6134567260742
161.9 60.0630683898926
162.9 35.0029449462891
164.0 245.36604309082
175.0 170.307174682617
176.0 126.379028320313
177.0 199.922927856445
178.0 136.303375244141
178.0 354.155364990234
188.0 65.8291015625
190.0 68.9712753295898
190.9 63.3329811096191
204.0 218.69123840332
206.0 322.573822021484
207.0 34.4186401367188
208.0 27.6371765136719
