#"+EI Scan (rt: 6.627-6.656 min, 6 scans) MIX2-4.D  Subtract "
#Point,X(Thompsons),Y(Counts)
41.0 10054.791015625
42.1 14932.2255859375
43.0 5152.8564453125
44.0 4960.84521484375
45.0 10677.5185546875
46.0 428.546783447266
47.0 730.535461425781
50.0 1653.62548828125
51.0 1278.19311523438
52.0 329.750183105469
53.0 512.854614257813
54.0 1923.0625
55.0 4958.314453125
56.0 6273.822265625
57.0 2269.84741210938
58.0 2100.30151367188
59.0 271.922698974609
59.9 55.4338684082031
60.9 39.7929954528809
62.0 238.935241699219
63.0 1335.00939941406
64.0 284.299499511719
65.0 858.045349121094
66.0 138.977249145508
66.9 42.6569328308105
67.0 617.903503417969
68.0 2588.67065429688
69.0 7253.6455078125
70.1 5183.94677734375
71.0 947.994262695313
72.0 513.202758789063
73.0 194.964477539063
74.0 568.979736328125
75.0 773.357727050781
76.0 1534.51623535156
77.0 4787.22998046875
78.0 1234.25451660156
79.0 4728.90283203125
80.0 370.159759521484
81.0 371.369476318359
82.0 3202.57885742188
83.0 648.831359863281
84.1 19666.8359375
85.0 1828.21875
86.0 2062.84204101563
87.0 578.695617675781
88.0 132.881286621094
89.0 645.652709960938
90.0 246.79899597168
91.0 1892.94104003906
92.0 210.125198364258
93.0 207.304565429688
93.9 68.9467849731445
94.9 196.875289916992
96.0 647.7763671875
97.0 1468.34558105469
98.0 416.420166015625
99.0 156.573593139648
102.0 334.032409667969
103.0 660.241394042969
104.0 625.7685546875
105.0 427.939666748047
105.9 102.723083496094
106.9 279.246368408203
108.0 6873.966796875
109.0 1333.57287597656
110.0 716.677734375
110.9 28.3798351287842
111.0 92.3744583129883
112.0 1171.73571777344
112.9 128.720108032227
113.0 28.7027225494385
114.0 57.5434150695801
115.0 1410.08642578125
116.0 578.877014160156
117.0 1547.94128417969
118.0 668.341735839844
118.9 113.221473693848
119.0 129.399017333984
120.0 31.9752445220947
121.0 1698.14208984375
122.0 1087.94592285156
123.0 3792.54858398438
124.0 953.709228515625
125.0 516.257873535156
126.1 4532.91015625
127.1 1953.1826171875
128.1 427141.25
129.1 35469.078125
130.1 2362.26416015625
131.0 1096.35388183594
132.0 315.414947509766
132.9 141.8662109375
133.9 47.2329978942871
134.0 458.258666992188
135.0 915.718078613281
135.9 1099.58581542969
137.0 1235.3837890625
137.9 167.315292358398
143.0 54.2798042297363
144.0 167.160232543945
145.0 650.2412109375
146.0 587.812072753906
147.0 324.078460693359
147.9 62.1362953186035
148.1 27.9654979705811
149.0 490.493011474609
150.0 696.473815917969
151.0 11789.1640625
152.0 1284.38684082031
153.0 633.783203125
154.0 55.3226318359375
156.1 67.2226791381836
158.0 60.9570045471191
159.0 112.552337646484
161.0 31.1767292022705
161.9 70.1755752563477
162.9 109.98429107666
163.9 53.2632942199707
164.9 75.2064743041992
165.0 891.106384277344
166.0 153.027221679688
176.9 142.659957885742
178.0 61.7666473388672
190.9 103.024513244629
192.0 690.032043457031
192.9 215.106719970703
194.0 334.967346191406
207.0 108.87646484375
208.0 7.26751708984375
209.0 10.819652557373
236.1 311.652618408203
253.0 71.0702972412109
264.0 391.235809326172
265.0 27.6563129425049
281.0 55.130615234375
326.9 119.699165344238
340.9 48.223014831543
