#"+EI Scan (rt: 6.627-6.656 min, 6 scans) MIX2-6.D  Subtract "
#Point,X(Thompsons),Y(Counts)
41.0 10081.0869140625
42.0 14874.3642578125
43.0 5057.14013671875
44.0 5001.47216796875
45.0 10497.9892578125
46.0 451.180267333984
47.0 692.184509277344
50.0 1569.94775390625
51.0 1282.09826660156
52.0 316.934539794922
53.0 547.54052734375
54.0 1995.63708496094
55.0 5082.12353515625
56.0 6378.8447265625
57.0 2305.83618164063
58.0 2105.0615234375
59.0 238.886245727539
60.0 54.6020927429199
61.0 55.8354034423828
62.0 208.598510742188
63.0 1450.1904296875
64.0 241.289978027344
65.0 867.8662109375
66.0 154.882675170898
67.0 628.348449707031
68.0 2596.578125
69.0 7305.83935546875
70.1 5191.7451171875
71.0 966.6708984375
72.0 510.188201904297
73.0 129.36279296875
74.0 574.688720703125
75.0 767.484802246094
76.0 1479.45397949219
77.0 4818.8642578125
78.0 1240.75720214844
79.0 4605.2275390625
80.0 366.034698486328
80.9 311.695709228516
81.1 25.4641971588135
82.0 3114.234375
83.0 613.113098144531
84.1 19887.94140625
85.0 1875.529296875
86.0 2044.17932128906
87.0 553.677795410156
88.0 131.094573974609
89.0 668.448913574219
90.0 256.705932617188
91.0 1862.23583984375
92.0 239.435104370117
92.9 295.656402587891
94.0 65.744255065918
94.9 177.373397827148
96.0 685.728698730469
97.0 1506.73486328125
98.0 404.180419921875
99.0 159.507400512695
102.0 381.250732421875
103.0 682.675842285156
104.0 643.525573730469
105.0 466.004760742188
105.9 96.0485534667969
107.0 303.690826416016
108.0 6888.646484375
109.0 1395.08532714844
110.0 681.988342285156
111.0 107.567420959473
112.0 1160.45751953125
113.0 91.4310989379883
113.1 48.0134925842285
114.0 54.5177459716797
115.0 1447.16882324219
116.0 604.552612304688
117.0 1583.16955566406
117.9 51.487606048584
118.0 645.693664550781
118.9 225.863204956055
121.0 1643.29016113281
122.0 1085.65246582031
123.0 3767.49633789063
124.0 843.171203613281
125.0 523.174194335938
126.1 4531.81787109375
127.1 1900.34802246094
128.1 431684.1875
129.1 36139.10546875
130.1 2417.68432617188
131.0 1147.16772460938
132.0 321.073852539063
132.9 129.319274902344
134.0 535.789611816406
135.0 896.093200683594
136.0 1173.61352539063
137.0 1292.3271484375
138.0 146.966598510742
139.0 27.910493850708
142.9 25.9435348510742
143.9 27.8758087158203
144.0 125.119483947754
145.0 679.579040527344
146.0 580.539489746094
147.0 297.058898925781
147.9 30.012788772583
148.0 106.448394775391
149.0 522.094299316406
150.0 660.706909179688
151.0 11839.1923828125
152.0 1272.58374023438
153.0 628.3388671875
154.0 30.4631938934326
155.9 25.3015003204346
158.0 106.458290100098
158.9 111.46117401123
162.0 31.4086475372314
163.0 118.638854980469
163.9 55.9278717041016
165.0 1012.25372314453
166.0 181.945602416992
176.9 156.217987060547
177.9 26.143590927124
190.9 63.3810119628906
192.0 637.298400878906
193.0 199.181930541992
194.0 329.958099365234
208.1 48.6408996582031
209.0 1.29277038574219
236.1 302.152435302734
253.0 21.5072441101074
264.1 416.872344970703
282.0 12.8185005187988
340.9 100.44310760498
