#"+EI Scan (rt: 6.627-6.656 min, 6 scans) MIX2-5.D  Subtract "
#Point,X(Thompsons),Y(Counts)
41.0 10123.8154296875
42.0 14940.9130859375
43.0 5229.50732421875
44.0 5012.72265625
45.0 10711.3046875
46.0 465.579498291016
47.0 707.711181640625
50.0 1677.85021972656
51.0 1288.958984375
52.0 354.249603271484
53.0 529.99951171875
54.0 1997.62243652344
55.0 5158.47900390625
56.0 6365.13623046875
57.0 2286.66918945313
58.0 2146.25219726563
59.0 248.861068725586
60.0 38.5374984741211
61.9 214.481002807617
63.0 1399.61413574219
64.0 262.398590087891
65.0 876.440185546875
66.0 162.119552612305
67.0 690.47607421875
68.0 2575.69360351563
69.0 7347.6455078125
70.1 5104.568359375
71.0 966.310607910156
72.0 531.164245605469
73.0 151.262451171875
74.0 545.31396484375
75.0 772.73095703125
76.0 1594.42626953125
77.0 4860.30029296875
78.0 1252.69641113281
79.0 4771.29833984375
80.0 421.309112548828
80.9 312.065795898438
82.0 3016.30151367188
83.0 626.896545410156
84.1 19891.603515625
85.0 1869.99182128906
86.0 2016.35620117188
87.0 608.787902832031
88.0 78.3709487915039
88.1 75.4935531616211
89.0 672.239318847656
90.0 221.558151245117
90.1 45.1398124694824
91.0 1804.03820800781
92.0 197.356369018555
92.9 227.774703979492
94.0 26.5384082794189
94.9 217.597885131836
96.0 681.795471191406
97.0 1461.51501464844
98.0 414.361328125
99.0 167.65348815918
101.9 29.5497493743896
102.0 332.424713134766
103.0 637.325012207031
104.0 601.055725097656
105.0 425.486755371094
106.0 127.663063049316
107.0 312.509063720703
108.0 6900.224609375
109.0 1288.33264160156
110.0 684.385925292969
110.9 122.56665802002
112.0 1164.64526367188
113.0 132.950820922852
114.0 30.9294452667236
115.0 1395.03161621094
116.0 616.26513671875
117.0 1506.95788574219
118.0 682.9072265625
119.0 228.144775390625
119.9 58.8404655456543
121.0 1653.75500488281
122.0 1021.43041992188
123.0 3881.00805664063
123.9 60.3982696533203
124.0 910.248962402344
125.0 495.531616210938
126.1 4379.48095703125
127.1 1886.05187988281
128.1 428085.125
129.1 35669.91015625
130.1 2351.2197265625
131.0 1121.78063964844
132.0 354.539520263672
132.9 122.371925354004
133.9 511.617065429688
135.0 899.308959960938
136.0 1118.10961914063
137.0 1278.84851074219
137.9 164.562774658203
138.9 30.3348541259766
143.0 53.222583770752
143.9 176.12776184082
145.0 584.862487792969
146.0 562.834045410156
147.0 346.548248291016
147.9 141.717346191406
149.0 511.376190185547
150.0 653.890014648438
151.0 11983.8623046875
152.0 1269.20092773438
153.0 611.438659667969
153.9 38.5606079101563
155.9 26.0787982940674
156.0 17.1404457092285
158.0 98.0809326171875
159.0 100.727027893066
160.0 26.3277187347412
161.9 29.2185611724854
162.9 89.5743942260742
164.0 65.4311141967773
165.0 961.78125
165.9 64.1377182006836
166.0 73.4615173339844
176.9 106.445182800293
190.9 76.2350463867188
192.0 686.541931152344
193.0 219.655578613281
193.9 25.2609767913818
194.0 331.858856201172
208.0 13.240195274353
209.0 98.8689041137695
236.0 328.70947265625
252.9 34.4631500244141
264.0 56.7078247070313
264.1 323.166961669922
281.0 7.49774169921875
282.0 49.6431922912598
326.9 16.941873550415
327.0 29.0384883880615
340.9 83.4759750366211
