#"+EI Scan (rt: 1.772-1.818 min, 9 scans) MIX3-1.D  Subtract "
#Point,X(Thompsons),Y(Counts)
41.0 846.137023925781
42.0 4109.8330078125
43.0 1245.90307617188
44.1 117624.3203125
45.0 3248.93310546875
46.4 18.5269241333008
49.0 91.0485000610352
50.0 2345.12548828125
51.0 9388.287109375
52.0 1911.46228027344
53.0 1690.89770507813
54.0 376.079833984375
55.0 452.034912109375
56.0 2032.27062988281
57.0 345.798278808594
58.4 61.8140335083008
58.6 72.7960510253906
60.9 184.056137084961
62.0 835.64892578125
63.0 1809.25573730469
64.0 471.446075439453
65.0 1197.12353515625
66.0 399.085327148438
66.1 25.4351768493652
67.0 564.873168945313
67.1 34.8149337768555
68.0 52.9799118041992
73.0 327.381744384766
74.0 678.50830078125
75.0 679.469848632813
76.0 1168.17175292969
77.0 10698.9599609375
78.0 4294.8369140625
79.0 2452.33129882813
80.0 67.6658020019531
80.0 493.592895507813
81.5 3115.40405273438
86.9 29.8094825744629
87.0 70.9407730102539
88.9 330.571075439453
89.0 492.208862304688
90.0 204.457962036133
91.0 798.419677734375
92.0 235.461776733398
93.0 217.012084960938
94.0 97.4810638427734
95.9 35.0306091308594
102.0 276.836151123047
103.0 1117.76428222656
103.9 27.3518848419189
104.0 1201.03503417969
105.0 3210.0693359375
106.0 2953.7392578125
107.0 933.988708496094
108.0 101.409049987793
115.0 66.5484466552734
115.9 20.0695743560791
116.0 149.497268676758
117.0 228.860534667969
118.0 299.989868164063
119.0 217.773452758789
120.0 359.102966308594
121.0 575.091735839844
122.0 188.739776611328
129.9 55.6349945068359
131.0 517.805114746094
132.0 215.579528808594
133.0 445.630859375
134.0 1009.63171386719
135.0 18638.41796875
136.0 40883.203125
137.0 3686.06591796875
138.0 320.989410400391
138.9 20.171802520752
145.0 16.9008674621582
146.0 37.0389595031738
147.0 304.270599365234
148.0 376.803588867188
149.1 58.7857818603516
160.0 18.9514255523682
161.0 177.307144165039
162.0 372.037994384766
162.9 28.4211444854736
163.0 559.614196777344
164.0 758.783874511719
164.9 62.8154563903809
176.0 90.8545379638672
177.0 302.128295898438
178.0 381.668243408203
179.1 1048.00830078125
180.0 106.601005554199
191.0 269.952484130859
207.9 16.9196853637695
208.0 35.5418243408203
237.0 26.6084766387939
