#"+EI Scan (rt: 2.734-2.780 min, 9 scans) MIX3-10.D  Subtract "
#Point,X(Thompsons),Y(Counts)
41.0 257.892181396484
42.0 823.72607421875
43.0 417.851257324219
44.0 57.8603515625
50.0 197.840515136719
51.0 254.287384033203
52.0 17.6177635192871
53.0 252.315155029297
53.9 38.8521270751953
55.0 185.197509765625
56.0 1547.189453125
57.0 484.590209960938
58.1 25559.96875
59.0 1037.17236328125
60.9 80.2990112304688
62.0 533.816589355469
63.0 1320.18041992188
63.9 174.243545532227
65.0 1360.0615234375
65.9 55.6360321044922
72.9 19.4532032012939
73.9 88.3567657470703
75.0 55.8380584716797
75.9 16.9409847259521
77.0 90.5011596679688
78.9 21.7174758911133
79.1 18.5442695617676
88.9 17.044620513916
91.0 607.806640625
92.0 73.1291198730469
95.8 17.0845928192139
96.0 40.719295501709
118.9 204.127197265625
119.9 116.728134155273
121.0 1245.50708007813
121.9 196.105651855469
135.0 270.336547851563
146.9 17.8841209411621
149.0 1568.68420410156
149.9 206.982330322266
162.0 42.0154876708984
163.9 41.9357299804688
164.0 44.0305023193359
172.0 4.25100708007813
176.0 19.3201961517334
178.0 22.3796787261963
191.0 81.3884582519531
207.0 0.19091796875
207.8 20.0661144256592
208.0 11.043212890625
