#"+EI Scan (rt: 3.427-3.474 min, 9 scans) MIX3-7.D  Subtract "
#Point,X(Thompsons),Y(Counts)
41.0 6306.70849609375
42.0 4976.88818359375
43.0 1171.03649902344
44.1 93147.125
45.0 2486.474609375
50.0 385.962799072266
51.0 708.888610839844
51.9 148.963836669922
53.0 859.248901367188
54.0 159.414749145508
55.0 1363.86181640625
56.0 1028.82360839844
57.1 9676.216796875
58.0 1509.49963378906
61.0 195.396423339844
62.0 1332.62939453125
63.0 4419.3466796875
64.0 699.862854003906
65.0 6755.919921875
66.0 478.844085693359
67.0 145.297317504883
68.0 271.5068359375
69.0 198.580917358398
70.0 988.25390625
71.0 130.495361328125
72.0 41.1518898010254
73.9 205.527572631836
74.9 21.4108753204346
75.0 91.9300003051758
75.9 136.611877441406
77.0 493.148773193359
78.0 116.519912719727
79.0 332.305358886719
81.0 37.6616554260254
82.0 96.5317916870117
83.1 37.3580856323242
84.1 3486.5927734375
85.0 773.862365722656
86.0 65.4247512817383
89.0 239.503601074219
89.9 77.6896133422852
90.0 25.1560916900635
91.0 3382.15258789063
92.0 547.726806640625
93.0 489.913024902344
94.0 59.4164772033691
95.0 105.785575866699
95.9 55.9409790039063
98.0 370.71484375
99.1 284.248992919922
100.1 55232.2109375
101.1 3893.31860351563
102.0 181.359756469727
103.0 113.476783752441
104.0 19.4986267089844
105.0 111.906700134277
105.1 20.7396812438965
114.9 17.5517807006836
117.0 396.397888183594
118.0 323.731079101563
118.9 45.4482383728027
119.0 1296.91357421875
120.0 660.883422851563
121.0 5700.5009765625
122.0 698.260070800781
123.0 209.245101928711
127.0 64.6285858154297
130.9 20.3767585754395
133.0 97.2673110961914
134.0 86.7332916259766
135.0 373.349731445313
136.0 38.1459808349609
144.9 41.6614379882813
145.0 39.2710952758789
146.0 1613.77502441406
147.0 986.453247070313
148.0 632.712768554688
149.0 11312.2744140625
150.0 2877.52709960938
151.0 314.412902832031
155.0 67.9838104248047
160.9 17.018835067749
162.0 120.846733093262
163.0 734.224548339844
164.0 94.2687530517578
171.9 27.2163200378418
174.0 195.529632568359
175.0 120.810302734375
176.0 204.884780883789
177.0 377.790222167969
178.0 330.939331054688
190.9 17.3352756500244
192.0 36.5108261108398
206.1 462.336059570313
207.0 56.3632202148438
208.0 70.7683486938477
209.0 16.8506755828857
216.0 99.3015975952148
234.1 1555.89624023438
235.1 193.593811035156
