#"+EI Scan (rt: 7.012-7.041 min, 6 scans) MIX3-2.D  Subtract "
#Point,X(Thompsons),Y(Counts)
41.0 3989.65234375
42.0 5207.93896484375
43.0 1997.15673828125
44.0 190.109558105469
50.0 331.244384765625
51.0 778.716125488281
52.0 159.619277954102
53.0 757.375732421875
54.0 2027.62829589844
55.0 6409.18310546875
56.0 2075.38793945313
57.0 741.34375
62.0 65.4806060791016
62.9 26.9084777832031
63.0 457.229278564453
63.9 36.1148414611816
64.9 66.2460327148438
65.0 40.500846862793
66.0 27.6472930908203
67.0 479.616790771484
68.0 1505.50769042969
69.0 3593.32397460938
70.1 2868.15893554688
71.0 574.339111328125
72.0 319.47314453125
73.0 157.796142578125
74.0 512.991882324219
75.0 987.554870605469
76.0 594.495544433594
77.0 2492.486328125
78.0 361.97412109375
78.9 29.8882923126221
79.0 102.159606933594
80.0 519.854858398438
81.0 317.137481689453
82.0 762.037048339844
83.0 114.011619567871
83.1 307.258941650391
84.1 4238.44775390625
85.0 431.24169921875
86.0 29.0070037841797
87.0 221.494506835938
89.0 161.864822387695
91.0 139.909790039063
91.1 89.102668762207
92.9 91.1165390014648
94.0 578.710388183594
95.0 403.677520751953
96.0 5026.265625
97.1 4494.8564453125
98.1 1926.31042480469
99.0 347.147094726563
100.0 183.578018188477
101.0 1534.29284667969
102.0 351.109710693359
104.9 148.848815917969
105.0 83.4899063110352
108.0 155.886993408203
109.0 83.2155990600586
110.1 1907.779296875
111.0 288.43310546875
115.0 679.219421386719
118.8 68.2781219482422
118.9 66.5099105834961
122.0 701.609680175781
123.0 91.5113525390625
123.1 30.2134323120117
124.1 4513.43896484375
125.1 1401.85974121094
126.1 194543.75
127.1 38154.75390625
128.0 4599.0986328125
129.0 468.729583740234
133.0 66.6872177124023
134.9 92.1448516845703
139.0 556.406982421875
140.0 230.919555664063
141.0 1530.03112792969
142.0 176.627426147461
147.0 52.3910980224609
149.9 93.6660537719727
150.0 27.3553104400635
151.0 262.238220214844
152.0 815.500549316406
153.0 646.027221679688
154.0 558.864135742188
155.0 7535.80810546875
156.0 1076.90100097656
157.0 28.5727710723877
163.0 91.2296829223633
164.0 30.0706100463867
165.0 890.566955566406
166.0 428.869293212891
167.0 518.359375
167.9 26.5940799713135
168.1 116.418968200684
170.0 1627.88195800781
171.0 149.416641235352
177.0 93.1025619506836
178.0 220.335922241211
179.0 146.418518066406
179.1 32.5532035827637
180.0 124.875846862793
180.1 66.1599426269531
181.0 471.481079101563
182.0 119.959403991699
183.0 255.771911621094
190.9 97.1788482666016
192.9 69.1651382446289
193.0 108.826820373535
194.0 54.9776420593262
195.0 284.157928466797
196.0 54.332691192627
207.0 54.302001953125
208.0 115.758972167969
209.0 253.299499511719
210.1 1457.9619140625
211.1 310.431365966797
212.1 317.613250732422
236.1 287.49462890625
238.1 470.181030273438
250.0 152.627731323242
252.9 69.0624694824219
279.1 229.624633789063
280.1 61.4106941223145
281.0 34.9943237304688
282.0 21.5003852844238
326.9 57.2468872070313
340.9 54.7242736816406
