#"+EI Scan (rt: 7.012-7.041 min, 6 scans) MIX3-3.D  Subtract "
#Point,X(Thompsons),Y(Counts)
41.0 3847.8056640625
42.0 5132.564453125
43.0 1964.71875
44.0 260.562927246094
50.0 344.157836914063
51.0 743.656799316406
52.0 200.303100585938
53.0 761.496276855469
54.0 1976.38195800781
55.0 6620.06103515625
56.0 2007.00830078125
57.0 798.483825683594
62.0 38.6391944885254
62.9 118.774688720703
63.0 394.190399169922
63.7 70.8141403198242
64.0 35.5253486633301
64.9 27.9413890838623
65.0 25.9108810424805
67.0 477.144165039063
68.0 1429.16809082031
69.0 3633.92626953125
70.0 2926.37353515625
71.0 571.288391113281
72.0 297.621337890625
73.0 108.768981933594
74.0 518.681579589844
75.0 951.248596191406
76.0 641.441772460938
77.0 2431.61669921875
77.9 296.446136474609
78.0 47.1557121276855
79.0 89.6559829711914
80.0 517.902038574219
81.0 354.990325927734
82.0 704.39013671875
83.1 416.556396484375
84.1 4203.82861328125
85.0 384.571868896484
85.1 49.7553749084473
86.0 55.9148979187012
86.9 247.958480834961
89.0 188.446273803711
91.0 222.506637573242
92.9 54.2308807373047
94.0 600.2861328125
95.0 473.795745849609
96.0 4994.4365234375
97.1 4433.6298828125
98.0 1979.1845703125
99.0 335.804595947266
100.0 196.281265258789
101.0 1517.849609375
102.0 386.975677490234
105.0 233.379104614258
108.0 174.932693481445
108.9 28.2611465454102
109.0 79.6408081054688
110.1 1896.177734375
111.0 324.869323730469
113.0 30.3446826934814
115.0 732.47705078125
118.8 133.926895141602
122.0 710.611999511719
123.0 89.993522644043
123.1 39.188606262207
124.1 4544.904296875
125.1 1450.57849121094
126.1 194901.8125
127.1 38013.70703125
128.0 4578.62646484375
129.0 502.143463134766
132.9 32.5982513427734
135.0 114.411628723145
139.0 563.695068359375
140.0 270.845275878906
141.0 1446.60021972656
142.0 229.508239746094
147.0 166.657516479492
150.0 87.8166732788086
151.0 234.22575378418
152.0 830.468078613281
153.0 672.035705566406
154.0 548.107116699219
155.0 7620.30859375
156.0 1048.48510742188
157.0 28.3352146148682
162.9 27.1638259887695
164.0 64.7888870239258
165.0 818.551635742188
166.0 425.507080078125
167.0 496.663452148438
168.0 143.216735839844
170.0 1592.53173828125
171.0 212.290267944336
176.9 95.597900390625
178.0 253.442260742188
179.0 219.459457397461
180.0 183.180770874023
181.0 442.945831298828
182.0 157.704284667969
183.0 237.211059570313
190.9 96.1100921630859
192.9 96.7639465332031
193.0 136.685684204102
194.0 67.6652297973633
195.0 261.377777099609
196.0 58.2113227844238
207.0 92.852783203125
208.0 159.05908203125
209.0 127.736267089844
210.1 1390.03137207031
211.1 276.954193115234
212.1 324.755706787109
222.0 80.8020401000977
223.0 52.6374816894531
236.0 297.679168701172
238.1 416.593719482422
239.0 27.6831111907959
250.1 129.832290649414
253.0 87.9368133544922
263.1 29.0337905883789
279.1 245.307861328125
280.2 96.1037063598633
281.0 29.1642761230469
326.9 75.5165328979492
340.9 49.5736541748047
