#"+EI Scan (rt: 1.784-1.830 min, 9 scans) MIX4-7.D  Subtract "
#Point,X(Thompsons),Y(Counts)
41.0 2259.84619140625
42.0 8952.380859375
43.0 2420.3740234375
44.1 27446.791015625
45.0 835.584411621094
50.0 1883.66625976563
51.0 6582.15087890625
52.0 755.190551757813
53.0 564.954162597656
54.0 713.115539550781
55.0 3714.32885742188
56.0 4572.2314453125
57.0 5850.80224609375
58.0 4144.3212890625
59.0 152.719863891602
61.9 125.227508544922
63.0 354.919494628906
63.9 53.2784271240234
64.0 17.7665901184082
65.0 356.002044677734
65.9 22.0096530914307
66.9 84.4973678588867
68.0 539.798767089844
69.0 285.080139160156
70.1 3022.96704101563
71.0 681.038024902344
72.0 104.332527160645
73.0 60.6255950927734
73.1 19.881814956665
74.0 500.583068847656
75.0 574.798950195313
76.0 808.715209960938
77.0 14932.8759765625
78.0 1681.49694824219
79.0 418.409637451172
79.1 35.9418144226074
80.9 18.4699630737305
82.0 108.027618408203
82.9 20.8746604919434
83.0 113.015289306641
84.1 5887.2197265625
85.1 753.474853515625
86.1 113558.15625
87.1 6824.80224609375
88.0 154.945495605469
89.0 377.632934570313
90.0 107.851821899414
91.0 1088.03771972656
92.0 119.500137329102
96.0 74.5893249511719
96.1 20.3337497711182
102.0 119.595932006836
103.0 490.047698974609
104.0 301.47998046875
105.0 6789.0986328125
106.0 750.626831054688
107.0 42.1485748291016
110.9 112.237586975098
111.0 17.5590534210205
115.0 521.14306640625
116.0 156.835342407227
117.0 290.920043945313
118.0 395.485870361328
119.0 121.113334655762
120.0 1198.20959472656
120.9 19.8628120422363
121.0 82.8683929443359
122.0 61.8078346252441
126.9 39.0310211181641
127.0 81.8462677001953
128.0 216.509475708008
129.0 120.12890625
130.0 343.996185302734
131.0 317.579254150391
131.9 120.044311523438
132.0 106.232116699219
133.0 837.366088867188
134.0 267.927581787109
138.9 118.968032836914
140.9 19.1135501861572
141.1 18.3640403747559
144.0 94.9773254394531
144.9 41.0871162414551
146.0 370.613433837891
147.0 229.11213684082
148.0 2494.083984375
149.0 345.271026611328
150.0 21.7340412139893
158.0 17.1682281494141
160.0 64.337043762207
160.9 19.1331634521484
162.0 108.84797668457
170.0 79.2795562744141
171.0 45.343994140625
190.9 35.9176292419434
207.0 51.8479614257813
