#"+EI Scan (rt: 3.422-3.468 min, 9 scans) MIX4-6.D  Subtract "
#Point,X(Thompsons),Y(Counts)
41.0 3767.58764648438
42.0 14708.3271484375
43.0 3347.89624023438
44.0 3852.79541015625
45.0 113.723579406738
50.0 783.636474609375
51.0 1450.41015625
52.0 445.742584228516
53.0 1869.31811523438
54.0 821.490173339844
55.0 21432.734375
56.0 4475.1005859375
57.0 865.791320800781
58.0 836.944396972656
61.0 428.837188720703
62.0 2492.978515625
63.0 8232.1025390625
64.0 1428.544921875
65.0 11144.1337890625
66.0 886.162841796875
67.0 316.634552001953
68.0 721.244262695313
69.0 662.960388183594
70.1 8290.9130859375
71.1 14235.0537109375
72.0 837.155578613281
73.0 83.3596496582031
74.0 477.366424560547
75.0 325.154846191406
76.0 411.152282714844
77.0 1250.15283203125
78.0 384.121337890625
79.0 658.085144042969
80.0 149.51774597168
80.9 21.9207248687744
81.1 23.7448825836182
82.0 256.123931884766
83.0 170.48779296875
84.1 2855.67919921875
85.1 1219.99230957031
86.1 215589.265625
87.1 12923.2099609375
88.0 272.607421875
88.1 185.745086669922
89.0 387.379821777344
90.0 265.267852783203
91.0 4065.6904296875
92.0 871.122741699219
93.0 613.165161132813
94.0 19.876371383667
94.1 103.180976867676
94.4 28.5562267303467
94.7 59.7036819458008
95.5 456.808959960938
95.6 73.1103210449219
95.9 55.0898475646973
98.0 34.468578338623
102.0 140.14924621582
102.1 17.2607002258301
103.0 295.351257324219
103.9 77.7176208496094
104.0 236.585830688477
105.0 428.297912597656
106.0 217.851043701172
107.0 102.678680419922
115.0 348.796569824219
116.0 253.532638549805
117.0 275.179046630859
118.0 209.24284362793
119.0 1191.87390136719
120.0 826.942749023438
121.0 11003.703125
122.0 1549.01123046875
123.0 269.090484619141
127.0 61.2741889953613
127.9 21.3668251037598
128.0 20.2027206420898
130.0 20.1333980560303
131.0 243.844207763672
131.9 66.0778503417969
132.0 107.259887695313
133.0 316.183258056641
134.0 1184.42175292969
135.0 1538.17297363281
136.0 151.479187011719
143.8 23.8596630096436
144.0 115.283638000488
145.0 308.311431884766
146.0 328.575714111328
147.0 390.899169921875
148.0 354.49365234375
149.0 15451.5654296875
150.0 1653.99450683594
150.9 188.078918457031
160.0 119.516548156738
161.0 190.599273681641
162.0 4595.3251953125
163.0 606.75048828125
164.0 3029.05590820313
165.0 282.886566162109
171.9 22.6203327178955
172.1 19.852783203125
174.0 396.801849365234
174.9 48.6941566467285
175.0 179.051239013672
175.9 209.266265869141
177.0 218.658142089844
178.0 37.8297805786133
188.9 119.231597900391
189.0 20.5747299194336
190.0 257.190246582031
191.0 397.693328857422
192.0 5472.455078125
193.0 758.479187011719
194.0 18.0021572113037
202.0 116.413665771484
203.0 73.0455093383789
204.0 141.349884033203
206.0 59.9996948242188
207.0 32.8369750976563
208.0 86.4885177612305
208.9 17.1414260864258
217.1 20.8101825714111
218.0 41.5271263122559
219.9 18.6737937927246
220.1 57.7930107116699
