#"+EI Scan (rt: 1.393-1.446 min, 10 scans) MIX5-2.D  Subtract "
#Point,X(Thompsons),Y(Counts)
41.0 437.237365722656
42.0 1956.86108398438
43.0 4241.49072265625
44.0 236.351440429688
44.9 60.4187126159668
45.0 44.9189720153809
48.9 154.166412353516
50.0 2120.63549804688
51.0 1075.48767089844
51.9 78.7751235961914
52.1 25.7728939056396
52.9 136.009460449219
53.0 20.1720905303955
54.0 314.010559082031
55.0 358.268890380859
56.0 6763.904296875
57.0 1076.10302734375
58.1 36508.0859375
59.0 1431.73132324219
60.0 36.6212539672852
60.9 224.569305419922
62.0 194.979156494141
62.9 294.231689453125
64.9 45.4043083190918
66.9 16.560079574585
68.0 280.251678466797
69.0 582.250610351563
70.0 131.677947998047
70.9 16.4115028381348
73.0 365.216247558594
74.0 1394.01342773438
75.0 5862.95947265625
76.0 1115.28247070313
77.0 370.719207763672
80.9 128.472320556641
81.9 15.7481307983398
82.0 56.6989326477051
83.0 129.388320922852
83.9 165.662399291992
84.9 525.624694824219
85.9 58.5160751342773
86.0 26.8862266540527
86.9 201.821151733398
88.9 17.7621326446533
91.0 138.948165893555
92.0 16.4098205566406
93.0 91.2152709960938
94.0 427.108428955078
95.0 4565.5498046875
96.0 488.585968017578
96.9 161.12126159668
101.0 146.480270385742
103.0 146.27278137207
103.9 101.73722076416
107.0 132.8154296875
108.0 47.0335731506348
109.0 391.114593505859
110.0 180.46076965332
111.0 8198.677734375
111.9 664.771545410156
113.0 2662.40747070313
113.9 196.405044555664
114.9 33.6661605834961
119.0 215.788558959961
119.9 21.0462989807129
121.0 103.313247680664
122.0 171.008941650391
123.0 2672.4169921875
124.0 221.763031005859
124.9 15.6282424926758
132.9 118.634994506836
135.0 192.252716064453
135.9 33.0738754272461
136.0 42.9008827209473
137.9 47.6488037109375
138.0 156.501037597656
139.0 16010.0390625
139.9 1275.38500976563
141.0 5225.17431640625
141.9 430.74267578125
148.0 33.9314994812012
149.0 15.8379535675049
150.0 70.1857452392578
151.0 219.064971923828
152.0 56.9533996582031
164.9 58.7030029296875
166.0 176.938598632813
181.9 266.031219482422
183.9 35.291748046875
190.9 50.9749908447266
207.0 149.764770507813
208.0 8.87060546875
