#"+EI Scan (rt: 1.393-1.446 min, 10 scans) MIX5-5.D  Subtract "
#Point,X(Thompsons),Y(Counts)
41.0 549.539672851563
42.0 2088.51220703125
43.0 4342.0986328125
44.0 270.939086914063
45.0 100.786811828613
49.0 177.309509277344
50.0 2256.57666015625
51.0 1184.6630859375
52.0 126.445335388184
52.9 227.408874511719
54.0 301.650054931641
55.0 407.097778320313
56.0 7196.572265625
57.0 1131.84228515625
58.1 37930.73828125
59.0 1469.23999023438
59.9 51.6384048461914
60.9 249.291534423828
62.0 211.505187988281
62.9 317.201812744141
65.0 68.0401077270508
67.9 262.345520019531
69.0 576.307250976563
69.9 108.796508789063
70.0 29.8958282470703
71.0 46.1804962158203
72.9 414.959289550781
74.0 1432.93896484375
75.0 6199.6650390625
76.0 1242.57238769531
77.0 440.752258300781
81.0 93.1380920410156
82.0 69.2633056640625
83.0 136.8076171875
83.9 200.427062988281
84.9 585.692077636719
85.9 115.066017150879
86.9 222.557815551758
88.9 23.8258781433105
91.0 113.137817382813
91.9 18.5992870330811
92.9 89.6398086547852
94.0 442.885192871094
95.0 4761.00390625
96.0 575.302185058594
97.0 163.442596435547
100.9 106.639709472656
102.9 150.811309814453
104.0 109.728904724121
104.9 100.389518737793
105.0 34.9447860717773
106.9 104.10001373291
107.9 60.5623397827148
108.9 409.225982666016
110.0 135.351043701172
110.1 21.2005710601807
111.0 8737.00390625
111.9 677.8193359375
113.0 2759.36547851563
113.8 98.3531341552734
113.9 101.431243896484
115.0 15.9820528030396
119.0 68.4697570800781
120.9 119.158401489258
121.9 85.4847640991211
122.0 66.8689575195313
123.0 2754.37963867188
124.0 245.501312255859
132.9 219.236175537109
135.0 116.013954162598
135.9 141.390365600586
137.8 7.2117805480957
138.0 217.534027099609
138.1 7.58066844940186
139.0 17069.556640625
139.9 1346.38146972656
141.0 5502.017578125
141.9 422.417541503906
148.0 4.90503787994385
150.0 180.305999755859
151.0 200.512847900391
152.0 64.1764907836914
155.9 272.964660644531
157.9 33.4987564086914
164.0 15.3265247344971
164.9 57.4865341186523
165.0 18.567684173584
166.0 210.854827880859
181.8 10.5011291503906
181.9 265.334442138672
184.0 30.9434204101563
207.0 74.9244384765625
208.0 11.0838623046875
209.0 31.8562889099121
