#"+EI Scan (rt: 1.795-1.848 min, 10 scans) MIX5-1.D  Subtract "
#Point,X(Thompsons),Y(Counts)
40.0 161.200424194336
41.0 3702.59594726563
42.0 21386.634765625
43.0 2921.81567382813
44.0 18881.515625
45.0 1083.32250976563
45.8 17.3368396759033
46.0 45.0158882141113
50.0 1979.07836914063
51.0 3526.55078125
52.0 1118.38439941406
53.0 832.419738769531
54.0 1591.67053222656
55.0 4502.90185546875
56.0 19679.150390625
57.0 8452.4150390625
58.0 1501.46179199219
59.0 140.068756103516
60.9 20.6345024108887
61.0 233.492752075195
62.0 1593.181640625
63.0 5828.3310546875
64.0 1697.70971679688
65.0 18416.572265625
66.0 1155.30725097656
67.0 72.6919403076172
68.0 260.418792724609
69.1 134.361282348633
70.1 14508.0625
71.1 5821.04248046875
72.1 443024.78125
73.1 21999.443359375
73.9 33.832935333252
74.0 1011.98095703125
75.0 734.204956054688
76.0 563.311157226563
77.0 2179.34716796875
78.0 676.03564453125
79.0 569.010070800781
80.0 31.52978515625
85.0 104.862953186035
86.0 172.758346557617
86.0 268.920959472656
86.9 17.5526657104492
87.0 490.363372802734
88.0 170.289245605469
89.0 6265.27978515625
90.0 2679.15209960938
91.0 25499.2265625
92.0 2630.30102539063
93.0 344.338195800781
94.0 15.7584476470947
96.0 39.5485000610352
98.0 83.8476715087891
101.0 80.5438690185547
102.0 394.140106201172
103.0 1208.45141601563
104.0 661.577697753906
105.0 3132.70068359375
106.0 333.616638183594
111.0 59.6081428527832
113.0 15.2176027297974
115.0 1824.62365722656
115.9 53.5961532592773
116.0 513.019409179688
117.0 1434.04418945313
118.0 484.057067871094
119.0 12607.2470703125
120.0 1298.26733398438
120.9 84.9013977050781
127.0 228.300170898438
127.1 15.5101795196533
127.9 18.9758853912354
128.0 448.125091552734
129.0 312.4326171875
130.0 418.425628662109
131.0 728.121032714844
132.0 898.512878417969
132.9 12.9856872558594
133.0 1343.96301269531
134.0 140.799987792969
139.0 16.4514236450195
144.0 332.772888183594
145.0 791.494506835938
146.0 947.676879882813
147.0 642.812683105469
148.1 1858.21118164063
149.0 212.308441162109
154.9 17.5014495849609
158.0 265.889099121094
159.0 76.3904418945313
160.1 1366.84265136719
161.0 582.953369140625
162.0 20.0545883178711
162.1 351.519073486328
172.1 44.0361938476563
173.0 59.4561996459961
174.0 1255.34399414063
174.9 34.0084533691406
175.0 334.784057617188
176.0 686.837768554688
177.0 103.104141235352
188.0 262.978454589844
189.1 181.258331298828
190.1 194.908615112305
191.0 483.364410400391
192.0 15.3559293746948
207.0 24.8527221679688
207.9 2.34675979614258
209.0 20.6205215454102
