#"+EI Scan (rt: 1.801-1.848 min, 9 scans) MIX5-7.D  Subtract "
#Point,X(Thompsons),Y(Counts)
41.0 3994.93603515625
42.0 22995.244140625
43.0 3117.00952148438
44.0 20115.1953125
45.1 1155.087890625
45.8 55.7730026245117
49.0 20.6026039123535
50.0 2058.77734375
51.0 3685.25439453125
52.0 1212.98168945313
53.0 937.024658203125
54.0 1735.21105957031
55.0 4744.548828125
56.0 21265.55859375
57.0 9098.8994140625
58.0 1620.93041992188
59.0 139.078918457031
60.9 281.198822021484
62.0 1717.75122070313
63.0 6306.5986328125
64.0 1830.18212890625
65.0 19853.29296875
66.0 1225.10559082031
66.9 84.3480529785156
68.0 263.855834960938
69.1 126.755409240723
70.1 15748.4580078125
71.1 6388.6943359375
72.1 482113.09375
73.1 23733.9296875
74.0 1080.33544921875
75.0 788.096740722656
76.0 644.735046386719
77.0 2265.0087890625
78.0 760.917419433594
79.0 603.448669433594
79.9 17.2934761047363
80.0 18.3619270324707
80.3 16.892204284668
80.5 16.8052215576172
84.9 122.592124938965
86.0 445.571655273438
87.0 540.379150390625
88.0 171.048034667969
89.0 6700.830078125
90.0 2888.23510742188
91.0 27655.77734375
92.0 2797.99560546875
93.0 96.5134124755859
93.0 247.975448608398
93.8 18.6597423553467
98.0 67.908332824707
101.0 63.5977096557617
102.0 437.703247070313
103.0 1287.01330566406
104.0 704.384643554688
105.0 3462.3046875
106.0 348.943206787109
110.9 101.132621765137
115.0 1996.90795898438
116.0 586.319030761719
117.0 1502.98742675781
118.0 283.435607910156
118.0 237.827606201172
119.0 13685.3427734375
120.0 1345.35144042969
121.0 86.7759399414063
126.9 22.6276168823242
127.0 221.228286743164
128.0 495.526733398438
129.0 344.428192138672
130.0 472.407775878906
131.0 804.292785644531
132.0 985.709228515625
133.0 1561.86596679688
134.0 156.632675170898
138.9 72.0224227905273
143.0 18.2788200378418
143.9 39.7052688598633
144.0 348.475372314453
145.0 799.006042480469
146.0 1052.63903808594
147.0 675.58447265625
148.1 2098.16162109375
149.0 188.672332763672
154.9 73.3040390014648
158.0 286.723724365234
159.0 84.7810516357422
160.1 1518.84716796875
161.0 627.007995605469
162.0 381.485687255859
172.0 45.5259895324707
173.0 106.901817321777
174.1 1331.47106933594
175.0 348.183441162109
176.1 777.026184082031
177.0 81.9625244140625
188.1 313.760833740234
189.0 162.293502807617
190.1 184.123352050781
191.0 57.8652763366699
191.1 465.266479492188
192.1 20.6467113494873
