#"+EI Scan (rt: 1.918-1.970 min, 10 scans) MIX5-2.D  Subtract "
#Point,X(Thompsons),Y(Counts)
41.0 1980.9169921875
42.0 20659.654296875
43.0 2597.53076171875
44.0 17536.37890625
45.0 967.266479492188
46.0 31.6829929351807
49.0 306.824005126953
50.0 5756.83984375
51.0 3499.69165039063
52.0 489.612731933594
53.0 523.428649902344
54.0 1641.48168945313
55.0 3459.8037109375
56.0 16932.3046875
57.0 7588.48388671875
58.0 1048.07019042969
59.9 73.2078018188477
60.9 649.753845214844
62.0 504.45263671875
63.0 1097.32836914063
63.9 34.288272857666
64.0 81.6300430297852
64.9 127.660385131836
65.8 33.8354301452637
65.9 16.8954601287842
67.0 15.5862331390381
68.0 213.610076904297
69.0 36.2244987487793
69.2 101.318824768066
70.1 12209.001953125
71.1 4471.34716796875
72.1 331363.40625
73.1 17192.27734375
74.0 3671.10693359375
75.0 15225.509765625
76.0 3515.52392578125
77.0 2775.23754882813
78.0 437.336090087891
78.9 62.2418823242188
79.0 62.0766296386719
80.4 20.0245018005371
80.6 17.2737922668457
81.0 15.4284210205078
84.0 535.39453125
85.0 1916.53649902344
86.0 508.463226318359
86.8 23.8073463439941
87.0 841.955749511719
87.9 111.289100646973
88.0 27.7136497497559
89.0 878.663757324219
90.0 202.739654541016
91.0 176.143737792969
95.9 99.9847869873047
96.9 67.5248565673828
97.0 63.543586730957
97.9 31.8343811035156
98.0 137.213958740234
98.9 234.365875244141
100.0 80.8075561523438
101.0 458.3466796875
102.0 619.976440429688
103.0 1576.16186523438
104.0 394.5478515625
105.0 157.873962402344
107.9 21.0867156982422
108.9 38.9478073120117
109.8 20.118989944458
110.0 389.130187988281
111.0 18106.228515625
112.0 1936.37268066406
113.0 6036.5908203125
114.0 757.180297851563
115.0 608.841186523438
116.0 224.397750854492
117.0 251.196578979492
118.0 90.7660980224609
122.9 154.509643554688
125.0 1307.201171875
125.9 19.2534961700439
126.0 123.25
127.0 452.374694824219
127.9 74.0492401123047
130.0 250.064163208008
131.0 676.35693359375
132.0 396.519592285156
133.0 659.824401855469
134.0 31.1284065246582
135.9 78.5756988525391
136.9 256.083374023438
137.9 179.600112915039
139.0 7689.16162109375
140.0 741.039794921875
140.9 2493.04736328125
141.8 19.711576461792
141.9 188.803024291992
144.0 178.848846435547
145.0 840.409484863281
146.0 229.384735107422
148.9 116.747314453125
149.0 42.528980255127
149.9 135.646575927734
150.9 112.936866760254
152.0 292.253356933594
152.9 67.5741195678711
154.0 84.0358123779297
159.0 16.2699604034424
160.0 295.149475097656
161.0 290.748779296875
164.9 130.98405456543
166.0 572.043823242188
167.0 339.413879394531
168.0 987.043640136719
168.9 128.256439208984
170.0 236.567962646484
175.0 16.5431518554688
178.0 62.4857177734375
180.0 554.009460449219
181.0 156.236190795898
182.0 514.053466796875
182.9 77.4635848999023
183.1 20.4527397155762
184.0 126.014602661133
190.9 27.866096496582
192.9 33.1137924194336
194.0 709.803344726563
195.0 178.121002197266
196.0 386.601135253906
196.0 277.070251464844
197.0 59.1888542175293
197.1 15.7930603027344
198.0 116.862548828125
207.0 72.109375
208.0 261.061614990234
209.0 92.8525695800781
210.0 246.940673828125
211.0 134.909790039063
