#"+EI Scan (rt: 2.978-3.031 min, 10 scans) MIX5-8.D  Subtract "
#Point,X(Thompsons),Y(Counts)
41.0 266.397491455078
42.0 146.899749755859
43.0 132.603851318359
44.0 90.7557983398438
54.0 77.4928207397461
55.0 294.138519287109
56.0 537.994995117188
57.0 13.9843807220459
65.0 147.731018066406
68.1 15.6820011138916
69.0 108.208274841309
70.0 98.2690353393555
89.0 16.0705490112305
91.0 401.812133789063
95.9 15.5174217224121
96.0 285.954559326172
97.1 17.0180339813232
98.1 4342.96923828125
98.9 16.9672527313232
99.1 268.719207763672
119.0 345.511322021484
149.0 25.4960117340088
