#"+EI Scan (rt: 1.515-1.556 min, 8 scans) MIX6-3.D  Subtract "
#Point,X(Thompsons),Y(Counts)
41.0 2846.81079101563
42.0 8803.3837890625
43.1 3821.17309570313
44.1 313913.09375
45.1 8763.478515625
46.4 65.8022918701172
46.5 70.5295181274414
48.9 100.338027954102
50.0 3156.71435546875
51.0 8220.142578125
52.0 6996.50634765625
53.0 3428.00512695313
54.0 839.930786132813
55.0 1222.24279785156
56.0 1790.74694824219
57.0 738.016479492188
58.4 42.5830116271973
58.5 748.943420410156
58.6 25.6761646270752
59.4 66.2028350830078
59.5 574.088134765625
59.6 83.8675918579102
61.0 279.858123779297
62.0 1426.21826171875
63.0 4799.29150390625
64.0 2049.62573242188
65.0 6022.8408203125
66.0 906.413024902344
67.0 131.803314208984
67.1 473.623474121094
67.2 165.932693481445
67.6 67.1707153320313
69.0 88.0943603515625
73.0 100.252014160156
74.2 439.133331298828
75.0 2987.43872070313
76.0 1175.21948242188
77.0 17717.814453125
78.0 20560.6640625
79.0 6141.552734375
80.0 1812.74645996094
81.0 387.118438720703
81.9 184.846099853516
85.0 67.5960159301758
85.8 29.3045806884766
86.0 158.592224121094
87.0 285.488739013672
87.8 33.7757759094238
88.0 58.2526931762695
89.0 5221.17578125
90.0 2545.744140625
91.0 12871.896484375
92.0 3069.04956054688
93.0 1139.88171386719
94.0 662.542236328125
95.0 121.189575195313
95.9 27.428955078125
96.0 49.1212463378906
101.0 68.9825897216797
102.0 592.953125
103.0 1608.75354003906
104.0 1308.33996582031
105.0 1449.71520996094
106.0 4479.45947265625
107.0 9070.3642578125
108.0 1728.00952148438
109.0 262.442626953125
115.0 1531.59680175781
116.0 659.638732910156
117.0 1615.97473144531
118.0 2599.7421875
119.0 2180.7265625
120.0 899.882568359375
121.0 41576.78515625
122.0 92370.7421875
123.0 8426.64453125
123.9 21.1911163330078
124.0 534.288269042969
128.0 40.9703750610352
130.0 270.972747802734
131.0 658.651489257813
132.0 860.044311523438
133.0 992.173583984375
134.0 3944.92236328125
135.0 1650.88439941406
136.0 293.824920654297
145.0 18.8442878723145
145.1 18.8801288604736
146.0 212.143737792969
147.0 914.386047363281
148.0 1575.42858886719
149.0 1182.14221191406
150.1 2492.48046875
151.0 266.678649902344
162.0 279.569030761719
163.0 675.541870117188
164.1 896.481506347656
165.1 1669.64672851563
166.0 151.637542724609
177.0 66.4202651977539
191.0 6.91811752319336
209.0 15.4250984191895
