#"+EI Scan (rt: 3.066-3.107 min, 8 scans) MIX6-5.D  Subtract "
#Point,X(Thompsons),Y(Counts)
41.0 1465.0625
42.0 15884.71484375
43.0 2132.00537109375
44.1 48724.28125
45.0 1432.80102539063
48.9 42.3688354492188
50.0 1020.71478271484
51.0 1660.15087890625
51.9 185.984848022461
52.0 227.451385498047
53.0 1855.94299316406
54.0 563.179382324219
55.0 1265.05725097656
56.0 5503.4638671875
57.0 982.404296875
57.9 49.3640747070313
58.0 113.627487182617
60.0 71.7294158935547
61.0 729.218872070313
62.0 3640.05346679688
63.0 10806.8359375
64.0 1605.95104980469
65.0 12970.2373046875
66.0 1023.95599365234
67.0 151.557083129883
68.0 442.690734863281
69.0 310.371704101563
70.1 13568.427734375
71.1 1845.19409179688
72.1 200189.921875
73.1 9839.9208984375
74.0 966.665832519531
75.0 388.094573974609
76.0 376.988525390625
77.0 994.418334960938
78.0 335.878540039063
79.0 665.366394042969
79.9 40.6431121826172
80.9 18.8698406219482
81.0 20.7315006256104
86.9 19.1120719909668
87.9 39.9049110412598
89.0 578.351928710938
90.0 322.154235839844
91.0 5886.6982421875
92.0 1038.86474609375
93.0 574.330078125
94.0 54.5206718444824
94.1 19.1266212463379
94.5 25.8853740692139
94.9 52.1404724121094
95.9 38.0961532592773
101.8 38.9101753234863
101.9 126.954711914063
103.0 332.7451171875
104.0 207.301177978516
105.0 297.083068847656
106.0 42.7034301757813
117.0 129.78630065918
118.0 322.495086669922
119.0 1768.76403808594
120.0 1158.4833984375
121.0 11040.3154296875
122.0 1634.65515136719
123.0 190.963272094727
130.0 22.2855987548828
131.0 95.3225250244141
132.0 71.5555038452148
132.9 53.4008331298828
133.0 82.1162338256836
134.0 142.399154663086
135.0 2533.34106445313
136.0 299.911956787109
144.9 44.8307495117188
146.0 437.469604492188
147.0 640.721923828125
148.0 790.069580078125
149.0 14706.482421875
150.0 1601.36633300781
151.0 186.073226928711
159.9 99.7029571533203
161.0 76.2543487548828
162.0 203.316497802734
162.9 103.350006103516
174.0 58.5278091430664
175.0 53.9703598022461
176.0 765.613220214844
177.0 522.954895019531
178.0 1640.31945800781
179.0 134.173492431641
187.9 19.8903198242188
188.0 92.6494140625
190.0 329.568481445313
191.0 71.3044281005859
202.0 23.8332405090332
203.0 124.221290588379
204.0 53.678150177002
205.1 25.7655658721924
206.0 145.8935546875
208.0 11.8061599731445
208.1 21.1323585510254
209.0 22.4177913665771
219.1 292.892425537109
220.1 42.9238815307617
