#"+EI Scan (rt: 5.065-5.129 min, 12 scans) MIX6-9.D  Subtract "
#Point,X(Thompsons),Y(Counts)
41.0 5774.02880859375
42.0 1881.22521972656
43.0 2317.0576171875
44.0 2463.64282226563
45.0 30.481466293335
50.0 277.644073486328
51.0 683.45947265625
52.0 175.247116088867
53.0 1013.96606445313
54.0 555.629272460938
55.0 4391.06591796875
56.0 2728.28051757813
57.0 4535.36865234375
58.0 481.650482177734
61.0 117.215881347656
62.0 902.612121582031
63.0 3795.39819335938
64.0 659.216064453125
65.0 7007.88623046875
66.0 529.712707519531
67.0 313.438629150391
68.0 704.5693359375
69.0 395.984954833984
70.0 5724.19580078125
71.0 627.854614257813
72.1 43516.65234375
73.0 2251.96899414063
74.0 182.975402832031
74.1 16.1983108520508
74.9 29.786527633667
75.0 65.7816925048828
76.0 194.847961425781
77.0 790.379455566406
77.9 18.2574138641357
78.0 174.585510253906
79.0 396.919097900391
79.9 83.8141937255859
80.0 55.5769157409668
81.0 183.544738769531
82.0 368.702514648438
83.0 248.356491088867
84.1 1339.88696289063
84.9 15.2882966995239
85.1 133.327987670898
86.0 13.3677129745483
89.0 263.712646484375
90.0 146.952163696289
91.0 2503.54174804688
92.0 506.692230224609
93.0 752.211730957031
94.0 24.3779430389404
94.1 69.1973648071289
94.2 52.8534126281738
94.3 37.6315002441406
94.9 243.92155456543
95.0 120.372741699219
96.0 259.25439453125
97.0 14.8012046813965
98.1 2167.02099609375
99.1 718.803771972656
100.0 65.4563598632813
101.5 20.5394401550293
101.9 53.1859855651855
102.1 30.838716506958
103.0 328.596282958984
104.0 167.075332641602
105.0 335.641510009766
105.9 14.6295022964478
106.1 13.4899263381958
107.0 12.9889287948608
112.0 608.87060546875
113.0 48.7551307678223
115.0 244.460403442383
115.9 26.7708950042725
116.0 47.2009696960449
117.0 254.251174926758
118.0 187.779495239258
119.0 868.699890136719
120.0 732.083984375
121.0 7253.85595703125
122.0 922.1572265625
123.0 350.725463867188
123.9 179.106094360352
124.0 298.780853271484
126.1 2716.61450195313
127.0 22.8064746856689
127.1 697.506896972656
128.1 133357.046875
129.1 12474.1982421875
130.1 564.099426269531
131.0 267.701873779297
132.0 194.777282714844
132.9 102.720237731934
133.0 126.742790222168
134.0 128.463745117188
135.0 1713.494140625
136.0 223.714233398438
145.0 174.696517944336
146.0 296.195556640625
146.9 166.095428466797
147.0 440.766235351563
148.0 1597.78759765625
149.0 15328.740234375
150.0 3161.78735351563
151.0 343.394439697266
159.0 12.5117425918579
159.9 33.3334274291992
160.0 38.9648094177246
161.0 225.999801635742
162.0 116.97216796875
163.0 541.838195800781
164.0 362.680389404297
174.0 793.443359375
175.0 367.245574951172
176.0 254.510635375977
177.0 443.356323242188
178.0 506.516632080078
190.0 118.893867492676
190.1 72.5911636352539
191.0 45.0409545898438
204.0 359.378051757813
205.0 156.772644042969
206.1 1901.80310058594
207.0 253.215087890625
208.0 61.8203659057617
228.1 12.6647644042969
230.1 82.7031326293945
234.1 447.599700927734
235.1 13.1835021972656
248.1 286.175903320313
259.0 14.9849481582642
259.1 13.2848539352417
