#"+EI Scan (rt: 3.725-3.771 min, 9 scans) MIX7-5.D  Subtract "
#Point,X(Thompsons),Y(Counts)
41.0 2298.34887695313
42.0 1662.24780273438
43.0 903.692260742188
44.0 169.079467773438
49.9 149.311889648438
50.0 159.657775878906
51.0 1112.76928710938
52.0 115.828437805176
53.0 299.545623779297
54.0 896.687805175781
55.0 1795.11437988281
56.0 993.822143554688
57.0 310.071868896484
65.0 118.962852478027
67.0 281.527648925781
67.9 26.6302623748779
68.0 649.629699707031
69.0 1843.68103027344
70.0 1015.13519287109
71.0 176.884201049805
72.0 60.3932342529297
73.0 16.9106197357178
76.0 124.013481140137
77.0 3874.46533203125
78.0 472.372222900391
79.0 127.906700134277
80.0 265.477355957031
80.9 22.2614440917969
81.0 149.685363769531
82.0 329.541137695313
83.0 167.438491821289
84.1 2147.46875
85.0 155.297073364258
88.9 19.2583045959473
91.0 680.452209472656
92.1 25.5586853027344
94.0 261.052917480469
95.0 157.813018798828
96.0 2067.31127929688
97.0 1655.79028320313
98.1 942.345397949219
98.9 19.6744918823242
99.0 17.5088195800781
102.0 19.6892509460449
102.9 118.14461517334
104.0 124.082969665527
105.0 2933.67626953125
106.0 298.155151367188
107.9 129.599456787109
110.0 954.090942382813
111.0 116.315101623535
112.0 63.552619934082
115.0 295.732788085938
115.9 18.3914852142334
116.0 17.5083866119385
117.0 150.484970092773
120.0 409.769134521484
122.0 18.6381225585938
124.0 22.1145706176758
128.0 97.6529235839844
129.0 55.9377708435059
130.0 21.9595508575439
131.0 117.931327819824
132.0 17.1126766204834
133.0 188.696929931641
136.0 301.048614501953
138.1 1759.15161132813
139.0 42.531623840332
139.1 348.924896240234
140.1 57949.92578125
141.1 6034.11865234375
142.1 282.954620361328
144.9 16.8521575927734
160.0 422.555084228516
186.0 23.8575057983398
186.1 46.4499588012695
188.1 382.809204101563
190.8 18.0214614868164
207.9 41.9284896850586
214.1 40.800407409668
