#"+EI Scan (rt: 5.211-5.240 min, 6 scans) MIX7-2.D  Subtract "
#Point,X(Thompsons),Y(Counts)
41.0 10260.3544921875
42.0 3561.6640625
43.0 3061.37841796875
44.0 1605.60693359375
50.0 414.014801025391
51.0 913.5087890625
52.0 257.098999023438
53.0 1311.70581054688
54.0 765.645202636719
55.0 5798.900390625
56.1 5783.69873046875
57.1 14602.2666015625
58.0 896.804931640625
60.9 172.237670898438
62.0 1234.27380371094
63.0 5086.439453125
64.0 894.857360839844
65.0 9151.03515625
66.0 697.715576171875
67.0 366.968170166016
68.0 1024.18615722656
69.0 468.146392822266
70.1 4741.0556640625
71.1 559.375427246094
72.1 36782.8203125
73.0 1850.42150878906
74.0 244.090805053711
75.0 193.339660644531
76.0 315.870544433594
77.0 1187.37939453125
78.0 348.894989013672
79.0 571.587585449219
80.0 190.555801391602
81.0 218.442367553711
82.0 490.384368896484
83.0 358.524322509766
84.1 3266.70629882813
85.0 397.698638916016
86.1 625.422912597656
87.0 29.3475570678711
89.0 401.352661132813
90.0 192.167190551758
91.0 3093.62255859375
92.0 646.916076660156
93.0 780.954406738281
94.2 189.898849487305
95.1 85.4719848632813
95.2 197.728897094727
95.9 1075.25537109375
97.0 35.3459663391113
97.1 29.5402240753174
97.9 33.9645957946777
98.0 428.387359619141
99.0 665.676391601563
101.9 117.264366149902
102.0 25.5423793792725
103.0 314.266876220703
104.0 311.605194091797
105.0 556.77001953125
105.9 101.997901916504
107.0 54.668628692627
112.1 1016.66625976563
113.1 73.0019302368164
114.8 35.2148208618164
115.0 328.916412353516
116.0 157.286270141602
117.0 649.424377441406
118.0 202.85498046875
119.0 1047.38684082031
120.0 886.740051269531
121.0 9968.9072265625
122.0 1334.47448730469
123.0 343.472625732422
123.9 27.7111282348633
124.0 120.681770324707
126.1 4221.5185546875
127.1 1067.82043457031
128.1 211086.46875
129.1 19783.912109375
130.1 956.048645019531
131.0 314.189086914063
132.0 268.490539550781
132.9 57.8911170959473
133.0 290.210540771484
134.0 212.384048461914
135.0 9237.3017578125
136.0 1008.62231445313
144.0 28.4056625366211
145.0 255.083190917969
146.0 312.898284912109
147.0 878.8798828125
148.0 1417.61682128906
149.0 17242.416015625
150.0 2822.740234375
151.0 359.677093505859
158.9 93.2952651977539
160.0 143.744720458984
161.0 249.009567260742
162.0 441.826873779297
163.0 691.998962402344
164.0 630.591552734375
174.0 99.3798828125
174.0 574.13134765625
175.0 417.092071533203
176.0 207.584060668945
177.0 731.612243652344
178.0 499.728607177734
190.0 266.569427490234
190.9 107.819763183594
192.0 205.924362182617
204.0 242.47477722168
204.1 70.7763137817383
205.0 188.430099487305
206.1 2724.01684570313
207.0 304.004638671875
208.0 17.7445373535156
209.0 17.9946174621582
216.1 29.4801998138428
232.1 27.0117702484131
234.1 849.839538574219
235.1 78.954231262207
259.1 56.322265625
262.1 134.617050170898
276.1 56.2910575866699
