#"+EI Scan (rt: 1.696-1.743 min, 9 scans) MIX1-8.D  Subtract "
#Point,X(Thompsons),Y(Counts)
41.0 3999.99682617188
42.0 11006.990234375
43.0 6337.71923828125
44.0 650.927551269531
44.9 19.2556228637695
45.0 33.021125793457
45.1 81.4071578979492
45.4 77.3089294433594
45.6 32.9397392272949
49.0 18.1182994842529
50.0 2171.82055664063
51.0 3727.66772460938
52.0 1226.50439453125
53.0 839.255249023438
54.0 1023.45172119141
55.0 1910.07348632813
56.0 30847.376953125
57.1 6707.3203125
58.1 345173.46875
59.1 13057.85546875
60.0 197.818374633789
61.0 367.528228759766
62.0 1906.04125976563
63.0 6272.08251953125
64.0 1792.44738769531
65.0 18944.33203125
66.0 1181.19750976563
67.0 71.0297470092773
71.0 17.7707824707031
72.9 75.0313568115234
73.0 29.6792507171631
74.0 665.167175292969
75.0 704.40673828125
76.0 567.7392578125
77.0 1810.4501953125
78.0 603.347595214844
79.0 346.764709472656
79.7 18.1840591430664
80.0 78.3809127807617
85.0 119.215560913086
86.0 449.365386962891
87.0 451.391448974609
88.0 121.480018615723
88.1 17.0489177703857
89.0 6585.2529296875
90.0 2809.66137695313
91.0 26412.373046875
92.0 2748.01904296875
93.0 373.898712158203
93.1 59.2575836181641
96.0 41.6601028442383
101.0 44.4734954833984
102.0 310.539001464844
103.0 870.063598632813
104.0 468.775238037109
105.0 2021.31701660156
106.0 215.079544067383
115.0 1379.92041015625
116.0 443.617401123047
117.0 997.061218261719
118.0 781.905212402344
119.0 14058.1201171875
120.0 1436.42016601563
121.0 148.600967407227
127.0 148.304061889648
128.0 327.992218017578
129.0 218.220153808594
129.9 35.6640472412109
130.0 353.039611816406
131.0 553.713256835938
131.9 17.6873245239258
132.0 505.406799316406
133.0 1130.95056152344
134.0 1448.98767089844
135.0 78.8726806640625
141.9 19.5363025665283
143.0 22.2477207183838
143.9 35.3419303894043
144.0 450.137145996094
145.0 199.147552490234
146.0 1002.15008544922
147.0 1109.14306640625
148.0 825.679931640625
149.0 194.58447265625
158.0 101.726104736328
158.0 181.574523925781
159.0 121.623779296875
160.0 527.705139160156
161.0 605.990051269531
162.0 1327.77685546875
163.0 151.041351318359
173.0 105.77579498291
174.0 104.293601989746
175.0 72.5439682006836
175.9 18.0757579803467
176.1 216.332107543945
177.0 226.490676879883
207.0 11.2672119140625
208.9 2.48339080810547
