#"+EI Scan (rt: 1.696-1.743 min, 9 scans) MIX1-7.D  Subtract "
#Point,X(Thompsons),Y(Counts)
41.0 4076.26953125
42.0 11189.6376953125
43.0 6473.0166015625
44.0 658.940246582031
45.0 109.63712310791
45.1 56.3604469299316
45.4 35.0354881286621
45.6 20.1063499450684
49.0 44.0132217407227
50.0 2208.01635742188
51.0 3843.15063476563
52.0 1264.24987792969
53.0 870.409423828125
54.0 1047.5458984375
55.0 1855.86071777344
56.0 29895.904296875
57.1 6724.1845703125
58.1 347776.46875
59.1 13033.939453125
60.0 195.273345947266
61.0 317.050750732422
62.0 1901.92468261719
63.0 6281.8955078125
64.0 1841.4609375
65.0 19346.298828125
66.0 1175.32983398438
66.9 51.2263984680176
67.0 37.1101875305176
71.0 18.030725479126
72.9 27.1349468231201
73.0 101.056335449219
74.0 685.929443359375
75.0 700.59814453125
76.0 551.828247070313
77.0 1926.48156738281
78.0 617.208557128906
79.0 363.022369384766
79.8 38.8264122009277
79.9 52.7390022277832
84.0 24.5079231262207
85.0 137.270446777344
86.0 426.830505371094
86.8 27.3486423492432
87.0 429.533599853516
88.0 145.002914428711
89.0 6670.30126953125
90.0 2775.33154296875
91.0 26728.484375
92.0 2899.50317382813
93.0 416.334777832031
95.9 5.01264953613281
101.0 43.3720550537109
102.0 346.236267089844
103.0 825.908508300781
104.0 436.4052734375
105.0 2036.31970214844
106.0 237.554763793945
115.0 1439.5517578125
116.0 440.621917724609
117.0 1040.5849609375
118.0 782.290344238281
119.0 14233.837890625
120.0 1469.15612792969
120.9 19.6235809326172
121.0 179.984359741211
127.0 146.96125793457
128.0 335.771026611328
129.0 210.962097167969
130.0 393.523071289063
131.0 554.570251464844
132.0 536.464477539063
133.0 1133.8837890625
134.0 1478.833984375
135.0 114.443817138672
143.0 37.7518119812012
144.0 486.905334472656
145.0 204.868865966797
146.0 984.975158691406
147.0 1210.71557617188
148.0 799.7353515625
149.0 188.241806030273
158.0 259.032531738281
159.0 159.240539550781
160.0 510.047912597656
161.0 597.374267578125
162.0 1350.43139648438
163.0 161.897369384766
173.0 82.0761642456055
174.0 96.9178466796875
175.0 35.568603515625
176.0 192.582611083984
177.0 224.18798828125
178.0 17.1149711608887
208.0 13.9345855712891
208.9 19.4415683746338
