#"+EI Scan (rt: 1.853-1.912 min, 11 scans) MIX8-3.D  Subtract "
#Point,X(Thompsons),Y(Counts)
41.0 283.353759765625
41.9 73.4397811889648
42.0 715.018859863281
43.0 516.441162109375
50.0 611.053283691406
51.0 439.121673583984
52.0 14.3412685394287
53.0 14.9216299057007
54.0 148.851211547852
55.0 232.617218017578
56.0 3910.37939453125
57.0 544.818237304688
58.1 18293.40234375
59.0 745.377502441406
60.9 14.7401580810547
62.9 44.0246429443359
63.0 18.697566986084
73.0 178.177856445313
73.1 14.1108798980713
74.0 381.000274658203
75.0 1360.64379882813
75.9 21.5102519989014
76.0 299.239227294922
77.0 265.905303955078
77.9 14.9670476913452
84.0 80.8466415405273
85.0 213.640319824219
86.0 146.073181152344
86.9 28.8227310180664
89.0 50.3902473449707
91.0 30.727409362793
96.0 52.505859375
103.0 118.559104919434
105.0 47.319580078125
111.0 1768.86950683594
111.9 149.520172119141
112.9 539.221740722656
115.0 71.4178771972656
118.9 8.76173400878906
124.9 88.1732559204102
130.9 13.916708946228
133.0 35.7086334228516
138.9 948.274353027344
139.9 13.6820802688599
140.0 19.3490219116211
140.9 309.311645507813
147.0 118.714912414551
147.1 30.6480274200439
153.9 35.0423698425293
165.9 18.2802639007568
190.9 85.8101119995117
192.9 14.7660799026489
207.0 39.3916015625
208.0 1.85906982421875
281.0 63.0024528503418
