#"+EI Scan (rt: 1.987-2.046 min, 11 scans) MIX8-5.D  Subtract "
#Point,X(Thompsons),Y(Counts)
41.0 525.564392089844
42.0 1975.49938964844
43.0 1242.73889160156
44.0 175.302429199219
50.0 598.781982421875
51.0 1152.14770507813
52.0 264.543670654297
53.0 385.725280761719
54.0 255.627014160156
55.0 440.156097412109
56.0 7570.7080078125
57.0 1526.90600585938
58.1 73349.15625
59.1 2829.1416015625
62.0 183.456604003906
62.0 33.3739395141602
63.0 863.779296875
64.0 204.290679931641
65.0 680.065246582031
66.0 14.515341758728
72.9 16.590295791626
73.1 17.0231647491455
73.9 199.633438110352
74.9 53.6909027099609
75.0 133.052093505859
76.0 325.279418945313
77.0 2925.78930664063
78.0 869.876770019531
79.0 2121.88037109375
80.0 146.814895629883
84.0 46.6314659118652
86.0 69.1530685424805
87.0 33.3498115539551
89.0 1309.29724121094
90.0 1086.60925292969
91.0 1017.26287841797
92.0 59.2891464233398
101.0 15.5241689682007
102.0 298.317260742188
103.0 1732.14575195313
104.0 542.205017089844
105.0 1204.49291992188
106.0 186.532363891602
110.9 14.1913452148438
115.0 319.455596923828
116.0 47.0177116394043
117.0 197.967895507813
118.0 126.506156921387
119.0 464.4814453125
121.0 204.525497436523
121.9 30.652063369751
127.0 17.3109169006348
128.0 67.8917083740234
128.9 50.3922958374023
129.9 48.779598236084
131.0 131.518447875977
131.1 27.2368240356445
132.0 124.423683166504
133.0 2922.85327148438
134.0 396.034759521484
138.8 13.8963136672974
143.9 52.5537223815918
146.0 93.4161682128906
147.0 229.479476928711
148.0 433.185821533203
149.0 805.818664550781
149.9 40.5872039794922
158.0 14.3225889205933
160.0 283.476104736328
161.0 78.3787536621094
162.0 64.6479568481445
172.0 15.5905847549438
172.1 16.3344097137451
176.0 146.940689086914
190.9 51.558464050293
192.0 17.7157649993896
207.0 36.307861328125
208.0 13.1988830566406
208.9 94.030403137207
281.1 13.8380880355835
