#"+EI Scan (rt: 5.514-5.549 min, 7 scans) MIX8-10.D  Subtract "
#Point,X(Thompsons),Y(Counts)
41.0 12183.025390625
42.0 3159.66284179688
43.1 12960.1083984375
44.0 5546.80029296875
45.0 178.401596069336
50.0 437.348724365234
51.0 920.934509277344
52.0 282.499847412109
53.0 1224.56958007813
54.0 1012.31359863281
55.0 2080.90795898438
56.0 7106.337890625
57.0 2117.142578125
58.0 1041.29638671875
59.0 102.815422058105
59.9 70.9135208129883
60.1 36.7357063293457
61.0 177.450775146484
62.0 1355.90844726563
63.0 5797.69482421875
64.0 979.18408203125
65.0 10658.875
66.0 793.930603027344
67.0 1023.94305419922
68.0 998.950012207031
69.1 5655.80908203125
70.0 4839.189453125
71.0 393.720611572266
72.1 4632.1064453125
73.0 239.614471435547
74.0 207.804061889648
74.9 166.538208007813
75.0 29.5456027984619
75.9 26.2439861297607
76.0 274.511566162109
77.0 1176.66174316406
78.0 318.044006347656
79.0 559.877990722656
80.0 184.962295532227
81.0 227.735061645508
82.0 444.350372314453
83.0 218.697998046875
84.1 4628.54052734375
85.1 1188.40295410156
86.1 10113.365234375
87.1 666.43115234375
87.9 23.4943580627441
88.0 25.3888492584229
88.9 49.9360084533691
89.0 320.911773681641
90.0 192.701126098633
91.0 3400.66015625
92.0 747.961059570313
93.0 998.275085449219
94.3 149.38916015625
94.4 98.6574630737305
94.9 138.881225585938
95.1 188.35075378418
95.2 232.365692138672
95.5 56.8755302429199
95.9 522.160095214844
97.0 104.823921203613
98.1 2609.32739257813
99.0 28.9017066955566
99.1 244.583709716797
100.0 83.167610168457
100.1 193.755249023438
101.0 25.0610103607178
101.1 24.1439018249512
101.9 145.539291381836
102.0 38.808952331543
103.0 467.46484375
104.0 285.2939453125
105.0 560.087280273438
106.0 94.1079940795898
106.1 37.6590881347656
107.0 88.6059112548828
109.9 25.3221187591553
112.0 283.376861572266
113.0 22.2571659088135
115.0 297.811828613281
116.0 117.014442443848
117.0 241.889419555664
118.0 228.662551879883
119.0 1144.45178222656
120.0 1041.61657714844
121.0 11247.837890625
122.0 1537.2470703125
123.0 367.683898925781
124.0 196.355514526367
125.2 23.8344020843506
126.1 5692.97998046875
127.2 1370.82043457031
128.1 296452.125
129.1 27714.580078125
130.1 1307.09545898438
131.0 459.366607666016
132.0 275.564880371094
132.9 313.279327392578
134.0 214.756240844727
135.0 4861.88525390625
136.0 598.336486816406
141.0 21.8031406402588
142.9 26.4070930480957
144.0 55.2478218078613
145.0 196.975814819336
145.9 116.963996887207
146.0 149.76611328125
147.0 795.375122070313
148.0 1415.74914550781
149.0 17827.443359375
150.0 2398.85375976563
151.0 282.693237304688
159.0 125.460830688477
159.9 26.1483459472656
160.0 207.700775146484
161.0 278.049011230469
162.0 431.618927001953
163.0 519.513977050781
164.0 843.744934082031
164.9 50.3514404296875
172.0 44.8679847717285
173.0 30.0752391815186
174.0 235.100021362305
175.0 247.259979248047
176.0 173.759384155273
177.0 329.158538818359
177.0 323.712646484375
178.0 134.866775512695
178.0 92.0087966918945
187.0 24.8488426208496
188.0 206.598251342773
188.9 25.7326202392578
189.0 96.7656631469727
190.0 719.07470703125
191.0 169.825073242188
192.1 3289.4453125
193.1 495.081634521484
203.0 28.6962795257568
209.0 5.48527526855469
216.0 96.2326812744141
217.0 22.1055488586426
218.0 225.425827026367
219.1 80.2860336303711
220.1 1634.97424316406
221.1 297.693756103516
230.1 50.4323387145996
231.1 21.9905090332031
248.1 59.5953636169434
259.1 27.3435668945313
