#"+EI Scan (rt: 2.055-2.066 min, 3 scans) GC-CONFIRM-1.D  Subtract "
#Point,X(Thompsons),Y(Counts)
40.0 1488.99609375
41.1 28515.435546875
42.1 20203.423828125
43.1 10332.78125
44.0 1312.56713867188
45.0 81.59521484375
49.0 64.5357971191406
50.0 4434.80517578125
51.0 18112.3828125
52.0 2115.66943359375
53.0 3073.15454101563
54.1 10634.8251953125
55.1 29275.40625
56.0 7320.48486328125
57.1 828.177917480469
58.1 6625.79541015625
59.0 303.622528076172
62.0 349.773651123047
63.0 958.595275878906
64.0 244.273681640625
65.0 1348.10632324219
65.9 448.697540283203
67.0 1551.02893066406
68.1 7173.59130859375
69.1 8029.70458984375
70.1 30906.076171875
71.1 2373.7958984375
72.1 163.844223022461
73.0 140.815521240234
74.0 996.450439453125
75.0 1056.89221191406
76.0 2475.52026367188
77.0 49159.46484375
78.0 5170.365234375
79.0 1098.56188964844
80.0 1649.88562011719
81.0 676.545227050781
82.0 3622.91870117188
83.0 1473.5048828125
84.0 2618.177734375
85.0 167.347763061523
86.2 73.3756332397461
86.8 51.229549407959
87.0 67.8914566040039
89.0 964.298828125
90.0 515.438903808594
91.0 5195.62451171875
92.0 559.858764648438
93.0 614.053161621094
94.0 1677.62109375
95.0 1062.07446289063
96.1 13388.83984375
97.1 8450.1435546875
98.0 688.785583496094
101.0 77.9212036132813
102.0 781.571044921875
103.0 1148.42077636719
104.0 1249.16088867188
105.0 27094.078125
106.0 2589.4931640625
107.0 236.552978515625
108.0 2878.88256835938
109.1 463.380462646484
110.1 23017.904296875
111.1 4775.6962890625
112.1 581482.0625
113.1 47801.55859375
114.1 1716.73083496094
115.0 1984.10095214844
116.0 669.651306152344
117.0 1194.03527832031
117.9 91.0823669433594
118.0 362.368194580078
119.0 102.016868591309
120.0 669.618347167969
125.9 51.2332954406738
127.0 417.421051025391
128.0 936.382507324219
129.0 623.021301269531
130.0 929.805358886719
131.0 1063.0126953125
132.0 383.781372070313
133.0 716.97900390625
134.0 74.0356826782227
141.0 52.3943977355957
143.0 94.4966125488281
143.9 65.7070693969727
144.1 201.189025878906
145.0 374.203826904297
146.0 606.816955566406
147.0 576.575500488281
148.0 1093.60400390625
149.0 57.7957496643066
152.9 54.0010643005371
154.0 66.1688842773438
156.0 101.575782775879
158.0 446.16943359375
159.0 357.208587646484
160.1 1382.1796875
161.1 174.439895629883
166.9 156.470779418945
168.1 84.8124923706055
170.1 289.490051269531
172.0 189.935852050781
173.0 91.9553451538086
174.1 55.7799873352051
180.0 51.6501121520996
182.0 56.6530570983887
184.0 161.438888549805
186.1 1023.37969970703
187.0 252.264450073242
188.1 2628.6650390625
189.0 344.578094482422
196.1 167.897430419922
197.1 133.666915893555
199.0 156.251647949219
200.0 238.48681640625
201.1 65.3157272338867
202.1 77.2868499755859
207.0 97.7026748657227
213.1 268.693725585938
214.0 244.638046264648
215.1 718.809509277344
216.1 430.563629150391
217.1 248.17431640625
