#"+EI Scan (rt: 3.369-3.410 min, 8 scans) DIBUTYLONE-6.D  Subtract "
#Point,X(Thompsons),Y(Counts)
41.0 1807.03991699219
42.0 7569.9462890625
43.0 1818.89929199219
44.0 3345.7412109375
45.0 435.100799560547
50.0 462.292510986328
51.0 857.018249511719
52.0 180.50373840332
53.0 737.348754882813
54.0 313.010681152344
55.0 960.279541015625
56.1 4114.8857421875
57.0 436.212280273438
58.0 1656.05603027344
60.9 214.117340087891
61.0 19.3751964569092
62.0 1432.47912597656
63.0 4536.57568359375
64.0 641.536499023438
65.0 5713.37841796875
66.0 495.369689941406
67.0 109.344451904297
68.0 714.214172363281
69.0 690.829467773438
70.1 3498.83715820313
71.1 13512.6015625
72.0 845.502563476563
73.9 154.238464355469
74.0 145.8828125
75.0 200.6142578125
76.0 196.320388793945
77.0 821.796752929688
78.0 227.202362060547
79.0 433.697082519531
82.0 123.130493164063
84.1 3388.89599609375
85.1 1360.8798828125
86.1 151719.9375
87.1 9148.0908203125
88.1 274.593444824219
88.9 89.0179214477539
89.0 137.474151611328
89.9 108.170959472656
91.0 2085.84545898438
92.0 437.642303466797
93.0 76.7834091186523
94.0 60.3795700073242
94.1 19.0147171020508
94.3 21.9636135101318
101.4 23.6244487762451
101.6 21.6781959533691
101.8 20.5263748168945
102.2 52.1507263183594
102.9 339.767181396484
103.9 35.3918266296387
104.0 165.805480957031
105.0 314.731750488281
106.0 20.5552654266357
107.0 19.6260604858398
115.0 106.769569396973
117.0 82.8314819335938
117.9 24.6826915740967
118.0 85.9155883789063
119.0 709.105712890625
120.0 561.135620117188
121.0 4619.55126953125
122.0 524.291442871094
131.0 164.101028442383
132.0 145.693984985352
133.0 120.666007995605
133.9 39.7189559936523
135.0 1521.06567382813
135.9 117.751510620117
144.9 46.9757957458496
145.9 21.6136245727539
146.0 51.544303894043
147.0 544.927185058594
148.0 242.21061706543
149.0 6531.91064453125
150.0 616.090698242188
160.0 154.109619140625
161.0 81.0711975097656
162.0 286.638610839844
162.9 22.7998924255371
163.0 45.9975662231445
164.0 48.1757965087891
173.9 21.2700748443604
174.1 18.9736251831055
175.0 266.674041748047
176.0 184.394195556641
177.0 204.542266845703
178.0 812.858642578125
179.0 25.293643951416
188.0 76.7897186279297
189.0 22.7517852783203
190.0 370.741180419922
191.0 121.899238586426
192.0 207.287963867188
204.0 262.795989990234
206.0 22.8302783966064
206.0 309.229339599609
207.0 34.4578857421875
