#"+EI Scan (rt: 1.690-1.737 min, 9 scans) MIX8-9.D  Subtract "
#Point,X(Thompsons),Y(Counts)
41.0 6432.82421875
42.0 1330.70776367188
43.0 1080.95825195313
44.0 1396.45727539063
45.0 56.5748329162598
50.0 1052.58532714844
51.0 4080.6494140625
52.0 488.981231689453
53.0 182.000427246094
54.0 455.920349121094
55.0 91.837890625
55.0 455.870483398438
56.0 3904.259765625
57.0 546.58740234375
58.1 10568.4912109375
59.0 404.365356445313
61.9 37.4454536437988
62.9 17.7191905975342
63.0 240.115997314453
65.0 139.705932617188
66.9 103.069557189941
68.0 303.732574462891
69.0 187.999542236328
70.0 1520.06005859375
71.0 463.995941162109
73.0 35.9206275939941
74.0 283.005920410156
75.0 305.547424316406
76.0 541.414428710938
77.0 9452.4951171875
78.0 1065.28234863281
79.0 555.59375
80.0 18.9358901977539
82.0 19.3229446411133
84.1 2053.9140625
85.1 538.253173828125
86.1 83436
87.1 5100.92578125
88.0 96.5340881347656
89.0 213.469909667969
90.0 62.5257301330566
91.0 744.8837890625
92.0 87.0303344726563
95.9 14.492057800293
101.9 44.8868637084961
103.0 218.027038574219
104.0 282.100708007813
105.0 4390.115234375
106.0 688.823120117188
107.0 65.4086837768555
115.0 378.932037353516
115.9 147.61994934082
117.0 339.656890869141
118.0 316.350463867188
118.8 17.852970123291
121.9 18.313943862915
127.9 20.2390556335449
128.1 50.7689094543457
129.0 45.371208190918
130.0 61.1221122741699
130.9 18.7623271942139
131.0 100.737915039063
132.0 157.476425170898
133.0 352.851989746094
134.0 1310.37670898438
135.0 136.288513183594
144.0 67.2788925170898
145.0 18.7248077392578
146.0 342.082641601563
146.9 63.6601486206055
147.0 120.113731384277
148.0 185.814956665039
149.0 90.4173431396484
149.0 47.0013084411621
160.1 18.5179176330566
162.0 1066.05383300781
163.0 105.785736083984
163.1 26.697624206543
190.9 30.4650955200195
207.0 31.267822265625
208.0 31.2130737304688
281.0 22.8551120758057
