#"+EI Scan (rt: 1.690-1.737 min, 9 scans) MIX8-3.D  Subtract "
#Point,X(Thompsons),Y(Counts)
41.0 6480.46826171875
42.0 1412.41906738281
43.0 1105.92065429688
44.0 1374.48974609375
45.0 87.4509582519531
50.0 1002.94171142578
51.0 4025.4365234375
52.0 507.213104248047
53.0 191.598785400391
54.0 481.672576904297
55.0 560.27197265625
56.0 3998.9501953125
57.0 475.404449462891
58.1 10554.013671875
59.0 426.605529785156
61.9 39.1803512573242
62.9 40.9581985473633
63.0 189.895568847656
64.9 159.067626953125
67.0 150.638931274414
68.0 277.773071289063
69.0 241.143341064453
70.0 1564.67456054688
71.0 541.494201660156
73.0 128.786010742188
74.0 271.921630859375
75.0 315.781951904297
76.0 531.737121582031
77.0 9361.666015625
78.0 1110.67236328125
79.0 604.8876953125
82.1 17.9976139068604
84.1 2062.80200195313
85.1 576.603088378906
86.1 83584.140625
87.1 5104.31201171875
88.0 119.815238952637
89.0 248.573654174805
90.0 67.802734375
91.0 785.777160644531
92.0 71.0489883422852
102.0 38.4288177490234
103.0 257.371887207031
104.0 268.935943603516
105.0 4272.58447265625
106.0 692.578125
107.0 36.4992370605469
115.0 380.960357666016
116.0 135.860656738281
117.0 369.766784667969
118.0 317.697326660156
118.1 20.981803894043
127.9 24.239086151123
128.0 50.1233673095703
129.0 54.9811019897461
130.0 84.6768264770508
131.0 114.335952758789
132.0 182.267517089844
133.0 203.114868164063
134.0 1332.86364746094
135.0 223.542846679688
144.0 45.8091278076172
146.0 367.271362304688
147.0 212.543273925781
148.0 170.122787475586
148.9 117.597236633301
149.1 19.4376335144043
160.0 18.3822574615479
162.1 1191.7509765625
163.0 137.29866027832
190.9 187.122741699219
207.0 133.528564453125
208.0 30.1848449707031
209.0 7.10325622558594
