#"+EI Scan (rt: 3.754-3.800 min, 9 scans) MIX1-3.D  Subtract "
#Point,X(Thompsons),Y(Counts)
41.0 762.201538085938
42.0 2829.052734375
43.0 766.719665527344
44.0 7215.57373046875
45.0 210.624923706055
49.9 193.705505371094
51.0 340.667877197266
52.0 80.4760055541992
52.8 17.9884719848633
53.0 352.698669433594
54.0 161.390380859375
55.0 1155.51208496094
56.0 1328.44116210938
57.0 1724.181640625
58.0 1072.41125488281
60.9 27.5004653930664
62.0 542.455871582031
63.0 1762.62097167969
63.9 42.4170989990234
64.0 239.395721435547
65.0 2480.78344726563
66.0 172.482604980469
66.9 18.3139896392822
68.0 127.259902954102
69.1 41.7785301208496
69.9 27.3388214111328
70.0 710.039855957031
71.0 205.128784179688
73.9 58.77294921875
76.0 36.8670501708984
76.9 28.5916843414307
77.0 241.81022644043
78.0 18.3605556488037
79.0 109.058670043945
84.1 2748.68725585938
85.0 219.642013549805
85.1 120.694793701172
86.1 40095.3203125
87.1 2422.03247070313
88.0 42.1524505615234
88.9 41.730541229248
91.0 882.426513671875
92.0 145.322265625
93.0 38.8732299804688
95.1 17.7288284301758
95.4 80.8058776855469
95.6 78.5155715942383
95.8 47.1773567199707
96.0 22.5145988464355
103.0 41.7456398010254
104.9 17.5033092498779
105.0 59.3689651489258
114.9 57.0013885498047
117.0 55.2254486083984
119.0 240.324920654297
119.9 169.268005371094
121.0 2325.33764648438
122.0 271.947509765625
133.0 25.7343940734863
133.9 67.8787307739258
134.0 38.2897186279297
135.0 386.416778564453
146.9 141.471633911133
147.9 17.559103012085
149.0 3133.3798828125
150.0 354.833251953125
162.0 304.647338867188
162.9 19.6224708557129
164.0 694.10791015625
176.9 37.6853485107422
188.0 16.8485488891602
191.0 38.3257675170898
192.0 277.939086914063
207.0 25.0015869140625
207.9 33.9342956542969
209.0 17.6019229888916
