#"+EI Scan (rt: 5.554-5.584 min, 6 scans) MIX1-1b.D  Subtract "
#Point,X(Thompsons),Y(Counts)
41.0 7972.46728515625
42.0 2657.9375
43.0 2918.30102539063
44.0 2860.82885742188
45.0 88.5313034057617
50.0 389.951049804688
51.0 815.685485839844
52.0 246.392211914063
53.0 1223.59936523438
54.0 755.538391113281
55.0 5126.208984375
56.0 4918.4892578125
57.1 7207.5771484375
58.0 432.668792724609
60.8 27.0638446807861
61.0 93.595458984375
62.0 1120.68859863281
63.0 4669.5390625
64.0 810.2548828125
65.0 8500.857421875
66.0 654.360656738281
67.0 287.924468994141
68.0 746.334777832031
69.0 383.475799560547
70.1 4957.17236328125
71.0 480.235076904297
72.1 14087.5419921875
73.0 750.289306640625
74.0 175.605651855469
74.9 26.1563949584961
75.0 127.774864196777
76.0 228.895767211914
77.0 883.774475097656
78.0 232.022827148438
79.0 482.975433349609
80.0 172.247924804688
81.0 160.82145690918
82.0 292.907135009766
83.0 219.242889404297
84.1 3209.89453125
85.0 324.452545166016
86.1 3471.48999023438
87.0 54.0038719177246
87.1 174.081253051758
89.0 270.066802978516
90.0 134.079055786133
91.0 2651.41137695313
92.0 557.644775390625
93.0 708.777648925781
94.1 45.0263328552246
94.2 31.3825626373291
94.5 102.108825683594
95.1 27.1222705841064
95.2 132.239028930664
95.4 118.401664733887
96.0 728.957092285156
96.8 28.1813640594482
98.1 631.746459960938
99.1 288.368133544922
100.0 129.710037231445
101.0 25.6562595367432
101.9 76.4415283203125
102.1 26.6773166656494
103.0 286.549987792969
104.0 224.413467407227
105.0 334.348175048828
106.0 37.7469902038574
107.0 26.4975128173828
112.1 934.352111816406
113.0 69.0378723144531
114.9 50.2628746032715
115.0 205.929565429688
116.0 112.807395935059
117.0 407.260528564453
117.9 174.856033325195
119.0 921.04248046875
120.0 713.978332519531
121.0 8822.787109375
122.0 1106.33532714844
122.9 274.145538330078
124.0 59.9345397949219
126.1 4468.556640625
127.1 997.694641113281
128.1 205176.3125
129.1 19048.638671875
130.1 821.2197265625
131.0 317.129516601563
131.9 192.491744995117
132.9 268.238433837891
133.9 107.314514160156
135.0 4743.46484375
136.0 478.059448242188
144.0 33.2467384338379
145.0 158.996444702148
146.0 230.914321899414
147.0 762.639099121094
148.0 1031.44396972656
149.0 14440.328125
150.0 1983.81726074219
150.9 249.331420898438
159.0 29.7822208404541
159.9 75.2375564575195
160.9 183.428665161133
162.0 314.114532470703
163.0 120.249885559082
164.0 621.130249023438
165.0 25.7812366485596
174.0 335.069091796875
175.0 270.046051025391
176.0 188.174514770508
177.0 546.512390136719
178.0 231.549438476563
188.0 97.83203125
190.0 223.886825561523
190.9 119.120025634766
192.0 141.188552856445
204.0 297.016265869141
205.1 63.5544128417969
206.1 2386.34887695313
207.0 226.915161132813
208.0 23.6375122070313
208.9 6.88279151916504
230.0 60.4510955810547
232.0 34.4049453735352
234.1 722.186218261719
235.0 102.090156555176
259.1 90.9016189575195
