#"+EI Scan (rt: 1.393-1.434 min, 8 scans) MIX2-7.D  Subtract "
#Point,X(Thompsons),Y(Counts)
41.0 1070.07104492188
42.0 4179.66552734375
43.0 3733.759765625
44.0 395.186645507813
45.0 171.295593261719
47.3 19.8283977508545
47.6 19.0265102386475
49.0 183.611099243164
50.0 1871.96801757813
51.0 1666.80419921875
52.0 318.335021972656
53.0 310.667602539063
54.0 641.982849121094
55.0 1139.64184570313
56.1 14553.13671875
57.0 2500.57885742188
58.1 91365.796875
59.1 3217.88037109375
60.0 53.1161956787109
61.0 195.634490966797
62.0 406.816467285156
63.0 741.48046875
63.9 31.3995304107666
64.0 81.9375610351563
65.0 250.580932617188
66.0 47.0143890380859
67.0 46.9018821716309
68.0 594.281555175781
69.0 1193.20983886719
70.0 372.414581298828
73.0 208.600646972656
74.0 1279.19921875
75.0 6934.8466796875
76.0 930.475952148438
77.0 2575.888671875
78.0 619.20166015625
79.0 2371.7158203125
80.0 187.191589355469
81.0 260.473937988281
81.8 20.0537796020508
81.9 88.7233581542969
83.0 326.076477050781
84.0 20.1575317382813
85.0 171.280960083008
86.0 92.8832092285156
87.0 148.031158447266
88.0 13.1015701293945
89.0 696.995361328125
90.0 253.816284179688
91.0 518.44287109375
92.0 195.280364990234
93.0 277.568939208984
94.0 1044.24865722656
95.0 10858.3857421875
96.0 1288.17846679688
97.0 288.9384765625
97.9 36.6625900268555
98.0 18.3747024536133
98.9 51.1721115112305
100.0 47.3073883056641
101.0 369.765014648438
102.0 314.633422851563
103.0 1904.6396484375
104.0 531.302001953125
105.0 3019.765625
106.0 302.898193359375
107.0 358.423736572266
107.9 218.584762573242
109.0 748.734680175781
110.0 186.440704345703
111.0 1657.7021484375
111.9 137.05192565918
112.9 511.96240234375
113.9 94.3731689453125
115.0 870.744140625
116.0 167.730041503906
116.9 20.6182708740234
117.0 12.3355712890625
117.9 20.7737979888916
118.0 47.9410247802734
119.0 55.1940155029297
120.0 136.072128295898
121.0 295.758575439453
122.0 269.738006591797
123.0 4673.31201171875
124.0 564.004455566406
124.9 50.7885437011719
127.0 31.2191886901855
128.0 90.7792358398438
129.0 32.2841033935547
130.0 42.3618354797363
131.0 184.922119140625
132.0 265.130493164063
133.0 12193.1484375
134.0 1411.70703125
135.0 429.889892578125
136.0 212.950225830078
137.0 100.581504821777
138.0 368.495727539063
139.0 3293.126953125
139.9 273.535614013672
140.9 1033.93713378906
141.9 107.020874023438
145.0 20.4383544921875
145.9 19.124303817749
148.0 250.427215576172
149.0 224.937713623047
150.0 664.184936523438
151.0 641.544006347656
152.0 248.951293945313
155.9 6.20796203613281
156.0 55.1446151733398
161.0 49.6180877685547
162.0 82.5325164794922
162.9 21.4876861572266
164.0 111.353698730469
165.0 293.870300292969
166.0 712.367614746094
167.0 93.8314819335938
177.0 19.8957977294922
178.0 93.7288818359375
180.0 85.0374603271484
181.0 43.6592254638672
181.9 79.7875137329102
208.0 18.4078903198242
208.9 20.2878761291504
