#"+EI Scan (rt: 1.719-1.766 min, 9 scans) MIX2-3.D  Subtract "
#Point,X(Thompsons),Y(Counts)
41.0 2077.42626953125
42.0 7787.05908203125
43.0 5327.08251953125
44.0 960.16796875
45.0 194.875793457031
48.9 16.8559188842773
50.0 2087.98168945313
51.0 5973.470703125
52.0 1528.75219726563
53.0 1578.83581542969
54.0 1076.7431640625
55.0 1936.88354492188
56.0 40647.7421875
57.1 6195.65185546875
58.1 349032.8125
59.1 13378.298828125
60.0 223.870468139648
60.9 100.29239654541
62.0 959.727844238281
63.0 3529.2919921875
64.0 1074.70300292969
65.0 2348.12109375
65.9 114.477569580078
66.0 285.624816894531
66.7 25.1291522979736
66.9 89.2510299682617
70.0 118.424385070801
70.9 33.2775039672852
71.0 201.803802490234
71.2 32.0467948913574
71.9 18.0117950439453
72.0 95.1958923339844
72.3 23.9473075866699
72.9 145.079147338867
73.0 123.156600952148
74.0 1023.09936523438
75.0 1263.96923828125
76.0 1588.25317382813
77.0 16069.798828125
78.0 5072.83544921875
79.0 8919.146484375
80.0 743.764770507813
80.7 20.9313278198242
80.8 70.0417175292969
83.0 19.065767288208
84.0 36.2900314331055
84.9 61.0594215393066
85.0 19.6680297851563
86.0 183.562652587891
86.9 233.465118408203
87.0 105.203765869141
88.0 190.983642578125
89.0 4641.720703125
90.0 2483.9990234375
91.0 4544.033203125
92.0 478.746307373047
93.0 55.8150787353516
94.9 18.3019828796387
98.0 104.490325927734
99.0 36.5586738586426
101.0 351.361236572266
102.0 1998.59509277344
103.0 8787.8330078125
104.0 4391.123046875
105.0 5749.4619140625
106.0 792.492004394531
107.0 202.115447998047
112.9 89.4982604980469
114.0 96.9555511474609
115.0 4475.14892578125
116.0 1216.34814453125
117.0 2098.86108398438
118.0 761.71484375
119.0 1530.36169433594
119.9 23.5734329223633
120.0 179.047836303711
125.9 70.2078323364258
127.0 718.381164550781
128.0 1454.66967773438
129.0 901.388916015625
130.0 676.491882324219
131.0 1384.37634277344
132.0 851.275756835938
133.0 7686.15087890625
134.0 1112.93786621094
135.0 198.201812744141
139.0 68.4567489624023
141.0 273.057220458984
142.0 115.772430419922
143.0 445.217254638672
144.0 795.343017578125
145.0 1836.31030273438
146.0 1017.6513671875
147.0 476.520233154297
148.0 370.412536621094
149.0 128.604248046875
150.0 30.4986572265625
156.0 100.822166442871
157.0 227.107604980469
158.0 673.733520507813
159.0 113.02857208252
159.0 265.802398681641
160.0 1134.24169921875
161.0 308.882110595703
162.0 172.855087280273
163.0 34.9131889343262
172.0 95.4605026245117
173.0 86.9962005615234
174.0 177.413146972656
175.1 150.513580322266
176.0 366.789001464844
177.0 17.2404136657715
189.0 136.544891357422
190.0 19.3692741394043
191.0 277.730590820313
207.0 10.469970703125
208.1 25.3071231842041
209.0 38.1195678710938
