#"+EI Scan (rt: 1.719-1.766 min, 9 scans) MIX2-10.D  Subtract "
#Point,X(Thompsons),Y(Counts)
41.0 2062.12670898438
42.0 7746.40185546875
43.0 5240.87939453125
44.0 735.390258789063
44.9 19.5306758880615
45.0 219.63542175293
50.0 2102.64526367188
51.0 5812.2138671875
52.0 1535.05554199219
53.0 1544.39624023438
54.0 1024.16076660156
55.0 1919.2509765625
56.0 38753.49609375
57.1 6181.5283203125
58.1 347707.53125
59.1 13142.98046875
60.0 179.552474975586
61.0 121.615287780762
62.0 949.743286132813
63.0 3692.58422851563
64.0 1042.5615234375
65.0 2411.10083007813
65.8 20.8117866516113
66.0 315.755126953125
66.8 25.6707000732422
66.9 95.0763626098633
68.0 17.8539028167725
69.0 23.6168231964111
70.0 116.33837890625
71.0 49.8867530822754
71.1 180.856033325195
72.1 144.551727294922
72.8 68.2789306640625
73.0 75.2840042114258
73.1 87.3255615234375
74.0 998.399719238281
75.0 1164.45263671875
76.0 1455.70043945313
77.0 15565.12109375
78.0 4995.45556640625
79.0 9065.37109375
80.0 709.071411132813
80.8 64.8246231079102
83.0 17.3651218414307
84.0 40.8722457885742
85.1 42.9292831420898
86.0 175.209243774414
87.0 354.414276123047
87.5 17.3292369842529
88.0 122.369033813477
89.0 4490.30859375
90.0 2373.63134765625
91.0 4522.6103515625
92.0 253.420654296875
92.0 223.687683105469
93.0 22.4891376495361
96.0 29.451774597168
98.0 71.3020858764648
98.9 17.5882511138916
101.0 367.246063232422
102.0 1930.74157714844
103.0 8584.01171875
104.0 4306.48046875
105.0 5672.49365234375
106.0 771.851440429688
106.9 69.3553085327148
107.0 129.282791137695
113.0 74.9047546386719
114.0 71.0901565551758
115.0 4378.62451171875
116.0 1148.52978515625
117.0 1967.4970703125
118.0 742.721801757813
119.0 1370.4560546875
120.0 211.742446899414
126.0 67.5326614379883
127.0 752.003784179688
128.0 1419.90441894531
129.0 887.596801757813
130.0 677.141845703125
131.0 1444.94909667969
132.0 844.829711914063
133.0 7483.6875
134.0 1130.12280273438
135.0 232.103698730469
138.9 10.1002044677734
140.9 23.2008686065674
141.0 243.380920410156
142.0 129.113464355469
143.0 465.072967529297
144.0 817.18994140625
145.0 1809.00170898438
146.0 983.815002441406
147.0 486.519958496094
148.0 423.775054931641
149.0 151.873352050781
150.0 36.4092102050781
155.8 18.3918571472168
156.0 104.822372436523
157.0 194.568130493164
158.0 635.742492675781
159.0 343.108520507813
160.0 1020.81469726563
161.0 330.738342285156
162.0 164.451568603516
163.0 83.0503616333008
172.0 98.7860870361328
173.0 96.0686187744141
174.0 172.484573364258
175.1 164.071548461914
176.0 456.967346191406
179.9 16.9087429046631
189.0 73.8817901611328
191.0 203.656402587891
192.1 17.5150470733643
207.0 40.4089965820313
208.0 34.9052734375
