#"+EI Scan (rt: 1.911-1.964 min, 10 scans) MIX2-1.D  Subtract "
#Point,X(Thompsons),Y(Counts)
41.0 521.816345214844
42.0 1644.56311035156
43.0 1106.1865234375
45.0 16.5603084564209
50.0 493.856750488281
51.0 1204.12426757813
52.0 527.03955078125
53.0 793.633483886719
54.0 318.186340332031
55.0 313.930450439453
56.0 10600.224609375
57.0 1311.26684570313
58.1 72639.1328125
59.0 2715.58032226563
60.9 35.5923767089844
61.0 38.4299278259277
62.0 453.7099609375
63.0 1332.1513671875
64.0 323.145446777344
65.0 1938.92895507813
66.0 223.871215820313
66.9 39.4708251953125
69.0 15.0839939117432
72.9 35.9578666687012
73.9 27.9805240631104
74.0 214.470855712891
75.0 104.673828125
76.0 259.874755859375
77.0 3522.10571289063
78.0 1309.4658203125
79.0 2154.92626953125
79.9 90.5061187744141
80.0 74.4058456420898
81.0 16.737003326416
86.0 33.5028991699219
86.9 19.6258907318115
87.0 19.1070499420166
90.0 170.799758911133
91.0 1280.98364257813
92.0 199.971893310547
93.0 34.414192199707
96.0 36.9169044494629
96.0 53.7238388061523
98.9 49.035572052002
102.0 433.976989746094
103.0 2179.779296875
104.0 707.900329589844
105.0 2685.51708984375
106.0 463.912109375
106.9 60.1850967407227
107.1 21.9205913543701
115.0 447.467407226563
116.0 228.900924682617
117.0 430.763000488281
118.0 90.5617446899414
119.0 502.430908203125
119.9 69.0546035766602
121.0 300.989685058594
127.0 81.6354827880859
128.0 250.87646484375
128.9 58.905403137207
129.0 147.153030395508
129.9 127.01579284668
131.0 152.692153930664
132.0 178.683197021484
133.0 2196.56030273438
134.0 317.676818847656
134.9 46.9150238037109
144.0 144.958770751953
145.0 219.937744140625
146.0 305.900817871094
147.0 58.5018730163574
148.0 129.671829223633
149.0 4365.5400390625
150.0 363.252319335938
158.0 163.165008544922
158.9 51.8517570495605
159.1 53.7954330444336
160.0 124.006713867188
161.0 120.006553649902
173.9 19.0159759521484
174.0 208.844772338867
175.0 112.684692382813
176.1 76.8394317626953
188.9 20.4144535064697
189.1 35.2929306030273
191.0 76.4694671630859
192.0 398.518493652344
208.0 81.4227828979492
208.9 16.3513622283936
