#"+EI Scan (rt: 1.993-2.046 min, 10 scans) MIX2-5.D  Subtract "
#Point,X(Thompsons),Y(Counts)
41.0 317.781799316406
42.0 2441.85131835938
43.0 446.3857421875
44.0 9491.05078125
45.0 341.706207275391
50.0 838.143493652344
51.0 618.633666992188
51.9 111.018127441406
53.0 115.948143005371
54.0 112.038352966309
55.0 307.560241699219
56.0 3217.8837890625
57.0 394.590240478516
58.0 2308.25146484375
58.9 21.562629699707
59.0 36.4171943664551
60.9 32.4070816040039
63.0 223.70881652832
63.0 38.7379150390625
64.9 98.6715850830078
65.0 90.7221527099609
68.0 64.7942352294922
69.0 31.0787715911865
70.0 1864.81164550781
71.0 375.849578857422
72.1 26783.951171875
73.1 1437.93188476563
74.0 442.268493652344
75.0 1908.97375488281
75.9 17.7316818237305
76.0 475.958587646484
77.0 723.815673828125
78.0 254.168441772461
79.0 288.179565429688
84.0 34.835563659668
84.9 272.230102539063
86.9 39.9166717529297
87.0 20.279088973999
88.9 35.9762763977051
89.0 158.382461547852
91.0 164.204986572266
91.1 28.1970252990723
93.0 125.10082244873
95.9 16.0464267730713
96.0 32.1707344055176
99.0 16.4320087432861
102.0 55.3048477172852
103.0 455.778411865234
104.0 230.298431396484
105.0 282.676177978516
110.0 32.3994293212891
111.0 2485.70971679688
111.9 262.9443359375
113.0 844.619445800781
113.9 69.8240203857422
115.0 330.298370361328
117.0 134.981781005859
119.0 66.5710906982422
124.9 147.211944580078
126.9 17.204418182373
129.0 15.1145429611206
130.0 16.3573341369629
131.0 285.980651855469
132.0 187.152572631836
133.0 330.119903564453
134.9 76.1127548217773
135.0 44.9290084838867
137.9 15.875244140625
138.9 297.787658691406
139.0 884.030517578125
140.0 129.716598510742
140.9 393.09228515625
146.0 139.672637939453
146.9 15.3133592605591
148.9 50.2498550415039
150.0 119.450439453125
151.0 191.989807128906
158.0 15.6701002120972
160.0 55.2688980102539
161.0 65.2657165527344
165.9 73.5309295654297
168.0 166.421905517578
169.9 15.2840270996094
173.9 25.0700607299805
191.0 32.3498039245605
196.0 15.5811386108398
207.0 2.65216064453125
208.0 15.4247970581055
209.0 15.9731922149658
