#"+EI Scan (rt: 3.981-4.027 min, 9 scans) MIX2-1.D  Subtract "
#Point,X(Thompsons),Y(Counts)
41.0 764.363525390625
42.0 3884.2890625
43.0 1029.11499023438
44.0 1227.30615234375
45.0 185.579544067383
46.0 189.935577392578
50.0 225.301559448242
51.0 449.597229003906
51.9 104.798919677734
53.0 508.301879882813
54.0 165.923141479492
55.0 1435.27526855469
56.0 2754.42016601563
57.0 843.239868164063
58.1 6551.517578125
59.0 262.311157226563
60.9 66.2186431884766
62.0 661.264770507813
63.0 2240.33911132813
64.0 326.882202148438
65.0 3230.67114257813
66.0 237.816833496094
66.9 22.6513500213623
67.0 70.5803451538086
68.0 413.478149414063
69.0 132.907196044922
70.1 1726.13610839844
71.1 5248.68896484375
72.1 1833.46545410156
73.0 154.623291015625
74.0 90.1003875732422
75.0 37.9234771728516
76.0 68.1935653686523
76.9 47.1010894775391
77.0 408.589569091797
78.0 98.2517852783203
79.0 220.474090576172
79.0 33.1454238891602
80.1 18.0390701293945
82.0 253.669296264648
83.0 170.054153442383
84.0 1473.2451171875
85.0 328.090881347656
86.0 127.714912414551
88.9 23.8085193634033
89.0 129.326614379883
89.9 17.36252784729
91.0 1297.03735351563
91.9 32.4225273132324
92.0 180.77067565918
93.0 35.8480186462402
94.0 20.4884948730469
95.8 36.3035430908203
95.9 16.4805507659912
98.1 731.442626953125
98.9 18.4778881072998
99.1 59.9607200622559
99.1 352.352844238281
100.1 89222.4375
101.1 6227.05126953125
102.0 50.9074859619141
102.2 223.365509033203
102.9 180.579147338867
104.0 89.2336578369141
105.0 212.496536254883
115.0 139.30126953125
117.0 84.9666748046875
118.0 25.4666156768799
118.1 16.9203662872314
118.9 433.0185546875
120.0 317.350952148438
121.0 2919.69750976563
122.0 368.498962402344
131.0 117.522300720215
132.0 76.9057388305664
132.9 94.8389739990234
133.0 22.9461250305176
134.0 17.9120769500732
135.0 1003.73425292969
135.9 54.942741394043
145.0 58.0852584838867
146.0 57.2730865478516
147.0 389.428619384766
148.0 133.449066162109
149.0 4000.38427734375
150.0 415.7666015625
160.0 37.1016693115234
161.9 19.7649612426758
164.0 253.200057983398
174.9 125.74462890625
175.9 100.946182250977
177.0 196.193725585938
178.0 496.594451904297
188.0 56.03857421875
190.0 58.7571563720703
190.9 40.9608345031738
204.0 195.564834594727
206.0 285.485626220703
207.0 91.5692749023438
208.0 71.9606857299805
