#"+EI Scan (rt: 3.981-4.028 min, 9 scans) MIX2-5.D  Subtract "
#Point,X(Thompsons),Y(Counts)
41.0 738.287109375
42.0 3939.38354492188
43.0 1041.42150878906
44.0 1203.03125
45.0 138.755889892578
45.1 35.3979721069336
46.0 188.271499633789
50.0 218.196228027344
51.0 457.415588378906
52.0 73.6070861816406
53.0 490.116333007813
54.0 180.878784179688
55.0 1521.10498046875
56.0 2845.66870117188
57.0 863.826232910156
58.0 6789.96826171875
59.0 232.78434753418
61.0 41.3105735778809
62.0 644.322509765625
63.0 2330.0791015625
64.0 331.072296142578
65.0 3351.76831054688
66.0 272.295867919922
67.0 87.471321105957
68.0 396.827026367188
69.0 142.085388183594
70.0 129.229080200195
70.1 1690.39477539063
71.1 5407.69775390625
72.1 1938.23803710938
73.0 146.754425048828
73.9 156.621978759766
75.0 42.0466079711914
76.0 87.5881500244141
77.0 502.362609863281
78.0 92.8593826293945
78.9 263.825500488281
80.0 19.0179443359375
81.1 17.4145565032959
82.0 242.79670715332
83.0 171.389831542969
84.1 1486.59265136719
85.0 311.229431152344
86.0 139.346389770508
89.0 113.839218139648
89.0 28.2723426818848
89.9 54.7763442993164
91.0 1304.60302734375
92.0 253.269607543945
92.9 35.9330444335938
94.0 18.2396125793457
98.0 785.56103515625
99.1 416.769500732422
100.1 91824.9140625
101.1 6507.189453125
102.2 272.821502685547
102.3 54.1835479736328
102.6 17.0917282104492
102.8 53.9740447998047
102.9 126.839790344238
104.0 90.9811935424805
105.0 239.588607788086
114.9 127.747718811035
116.9 40.4134063720703
117.0 42.1954689025879
118.0 59.9189529418945
118.9 22.9786510467529
119.0 447.264221191406
120.0 310.597290039063
121.0 2978.04809570313
121.9 75.7881546020508
122.0 313.292053222656
128.0 18.4331493377686
131.0 93.7559509277344
131.9 82.8525238037109
132.9 135.573638916016
135.0 980.640502929688
135.9 43.6272125244141
145.0 61.6240386962891
146.0 80.8801422119141
146.9 297.51025390625
147.0 131.52766418457
148.0 115.401435852051
148.1 21.966833114624
149.0 4147.7412109375
150.0 446.49755859375
159.9 34.200756072998
160.0 19.1716003417969
162.0 41.0771102905273
164.0 228.588073730469
175.0 154.002395629883
176.0 108.377136230469
176.9 23.2909717559814
177.0 181.535217285156
178.0 468.62255859375
188.0 46.1453094482422
190.0 66.2230377197266
190.1 35.600528717041
191.0 40.1659889221191
204.0 244.380798339844
205.0 18.4283809661865
206.0 277.144989013672
207.0 69.1912231445313
208.0 36.8647575378418
