#"+EI Scan (rt: 6.627-6.656 min, 6 scans) MIX2-7.D  Subtract "
#Point,X(Thompsons),Y(Counts)
41.0 10144.365234375
42.0 15012.6552734375
43.0 5179.9404296875
44.0 4994.3720703125
45.0 10701.634765625
46.0 454.365631103516
46.9 695.056579589844
50.0 1602.00280761719
51.0 1210.4736328125
52.0 319.994995117188
53.0 523.483520507813
54.0 2058.64916992188
55.0 5063.12841796875
56.0 6387.01513671875
57.0 2303.34985351563
58.0 2153.47827148438
59.0 212.333908081055
59.9 64.3873672485352
60.9 100.21240234375
61.9 223.931655883789
63.0 1366.26806640625
64.0 238.271789550781
65.0 869.023620605469
65.9 149.995086669922
67.0 652.594543457031
68.0 2591.19604492188
69.0 7110.81201171875
70.1 5125.10205078125
71.0 957.355285644531
72.0 452.778656005859
72.1 27.7639255523682
73.0 155.60693359375
74.0 538.7568359375
75.0 784.985412597656
76.0 1500.388671875
77.0 4714.134765625
78.0 1237.18029785156
79.0 4635.1357421875
80.0 353.834259033203
80.9 340.858123779297
82.0 3067.84204101563
83.0 649.672912597656
84.1 19621.267578125
85.0 1815.54748535156
86.0 2052.48779296875
87.0 588.083740234375
87.9 31.9290256500244
88.0 67.8573837280273
89.0 670.395935058594
90.0 242.223587036133
91.0 1843.62463378906
92.0 217.905258178711
92.9 226.441360473633
93.9 26.8402767181396
95.0 219.072738647461
96.0 718.896179199219
97.0 1452.48303222656
98.0 434.247100830078
99.0 152.010025024414
100.1 25.6498184204102
101.9 26.9105892181396
102.0 333.198944091797
103.0 686.958312988281
104.0 640.164367675781
105.0 417.440124511719
105.9 85.7434921264648
106.9 310.468109130859
108.0 6806.68896484375
109.0 1266.3056640625
110.0 660.402099609375
110.9 136.081604003906
112.0 1113.96960449219
113.0 130.579635620117
114.0 63.096019744873
115.0 1337.98083496094
116.0 588.13525390625
117.0 1473.7177734375
118.0 676.762268066406
119.0 233.836563110352
121.0 1597.60949707031
122.0 1016.45922851563
123.0 3815.08569335938
124.0 910.7763671875
125.0 484.676635742188
126.1 4484.685546875
127.1 2061.31323242188
128.1 426057
129.1 36021.46484375
130.1 2345.72778320313
131.0 1075.9775390625
132.0 268.805725097656
132.9 120.613548278809
134.0 537.468383789063
135.0 885.6552734375
136.0 1105.46740722656
137.0 1260.8564453125
137.9 174.492752075195
138.9 28.5841541290283
143.0 67.2564086914063
144.0 141.022445678711
145.0 603.920227050781
146.0 525.503845214844
147.0 305.398864746094
148.0 106.134460449219
149.0 484.977630615234
150.0 680.312194824219
151.0 11467.67578125
152.0 1233.33752441406
153.0 616.874084472656
154.0 28.7166385650635
155.9 28.1208724975586
158.0 105.577201843262
159.0 47.1622352600098
161.0 29.9836597442627
162.0 83.4494247436523
162.9 111.075904846191
165.0 973.21630859375
166.0 168.782653808594
176.0 25.6614627838135
177.0 149.255874633789
190.9 60.2629470825195
192.0 684.962219238281
193.0 214.895660400391
194.0 332.357666015625
207.0 100.004028320313
208.0 9.5308837890625
208.9 64.5325775146484
236.0 311.477416992188
252.9 43.1480979919434
264.0 391.159576416016
265.0 27.8643321990967
281.0 46.8467407226563
282.0 20.9764881134033
326.9 42.8300399780273
327.0 27.9510555267334
341.0 74.8330612182617
