#"+EI Scan (rt: 6.627-6.656 min, 6 scans) MIX2-2.D  Subtract "
#Point,X(Thompsons),Y(Counts)
41.0 10200.1630859375
42.0 15051.890625
43.0 5180.21044921875
44.0 5000.40283203125
45.0 10678.6845703125
46.0 397.298492431641
47.0 691.279296875
50.0 1656.71618652344
51.0 1322.24169921875
52.0 289.544891357422
53.0 546.606323242188
54.0 2048.57958984375
55.0 5095.2568359375
56.0 6373.74267578125
57.0 2235.41479492188
58.0 2151.8251953125
59.0 245.248062133789
59.9 57.2497138977051
61.0 67.6283721923828
62.0 229.643264770508
63.0 1379.59191894531
64.0 300.780364990234
65.0 878.001647949219
65.9 175.707595825195
67.0 663.585754394531
68.0 2657.50048828125
69.0 7278.92236328125
70.1 5288.4013671875
71.0 973.440368652344
72.0 500.2314453125
73.0 191.970825195313
73.8 40.1523323059082
74.0 506.457153320313
75.0 798.422302246094
76.0 1557.50744628906
77.0 4801.71728515625
78.0 1233.24133300781
79.0 4632.97021484375
80.0 372.570068359375
80.9 365.946136474609
82.0 3213.58227539063
83.0 650.697692871094
84.1 20021.986328125
85.0 1820.24597167969
86.0 2084.20263671875
87.0 577.836120605469
87.9 68.2551956176758
88.1 35.2902870178223
89.0 686.689636230469
90.0 166.564956665039
90.0 60.5872535705566
91.0 1832.86303710938
91.9 215.701049804688
93.0 268.626342773438
95.0 232.675338745117
96.0 699.1201171875
97.0 1541.9501953125
98.0 434.659423828125
99.0 187.247207641602
100.9 31.0722713470459
102.0 411.885589599609
103.0 690.978515625
104.0 631.511413574219
105.0 440.522064208984
105.8 27.6000270843506
105.9 67.0750122070313
106.9 266.293579101563
108.0 7027.56982421875
109.0 1357.55725097656
110.0 695.3232421875
111.0 146.909805297852
112.0 1192.27270507813
112.9 109.306632995605
113.0 31.5731048583984
114.0 69.7271041870117
115.0 1449.19201660156
116.0 563.566467285156
117.0 1598.62243652344
118.0 701.512756347656
118.9 237.849655151367
121.0 1811.18896484375
122.0 1070.14233398438
123.0 3869.76440429688
124.0 906.218322753906
125.0 496.665313720703
126.1 3946.8662109375
127.1 1923.44714355469
128.1 432581.71875
129.1 36406.07421875
130.1 2440.505859375
131.0 1073.22351074219
132.0 289.396209716797
132.9 121.330184936523
134.0 514.662170410156
135.0 943.459289550781
136.0 1134.47961425781
137.0 1246.02282714844
137.9 136.284683227539
143.0 28.1126022338867
144.0 150.922882080078
145.0 627.351989746094
146.0 558.891052246094
147.0 239.536911010742
147.0 63.9661598205566
148.0 134.356689453125
149.0 535.973510742188
150.0 621.587341308594
151.0 11933.5732421875
152.0 1225.24157714844
153.0 643.185485839844
154.0 59.623462677002
155.9 27.5837802886963
157.9 122.024169921875
158.9 101.449890136719
160.9 30.0702228546143
161.9 59.4458427429199
163.0 72.2943572998047
163.9 31.0990619659424
165.0 992.748840332031
166.0 172.74153137207
175.9 25.444709777832
176.0 26.785758972168
177.0 196.895858764648
177.9 53.2028350830078
190.0 25.6974086761475
190.9 69.7387847900391
192.0 678.683044433594
193.0 201.633331298828
194.0 331.575134277344
207.0 44.2474365234375
208.0 29.2619934082031
209.0 21.7284660339355
236.1 325.586059570313
252.9 57.5874900817871
264.1 428.827758789063
265.1 55.6384162902832
281.0 29.3785400390625
326.9 54.0628662109375
341.0 60.9138412475586
