#"+EI Scan (rt: 6.627-6.656 min, 6 scans) MIX2-10.D  Subtract "
#Point,X(Thompsons),Y(Counts)
40.0 157.730072021484
41.0 10112.1025390625
42.0 14715.62890625
43.0 5096.07666015625
44.0 4978.58935546875
45.0 10566.720703125
46.0 465.645172119141
47.0 723.21533203125
50.0 1634.42578125
51.0 1289.29992675781
52.0 298.386627197266
53.0 503.135284423828
54.0 1987.01232910156
55.0 5238.87109375
56.0 6400.21533203125
57.0 2257.72045898438
58.0 2121.349609375
59.0 245.718887329102
59.9 29.2093334197998
60.9 58.6908988952637
61.9 221.045211791992
63.0 1303.3603515625
64.0 214.718978881836
64.1 30.3782825469971
65.0 945.813049316406
66.0 153.092987060547
67.0 595.148803710938
68.0 2623.10473632813
69.0 7065.14404296875
70.1 5068.03466796875
71.0 953.571105957031
71.9 33.7170906066895
72.0 435.752716064453
73.0 117.92626953125
74.0 555.604431152344
75.0 770.330627441406
76.0 1560.13134765625
77.0 4679.64697265625
78.0 1221.0703125
79.0 4620.490234375
79.9 32.2404594421387
80.0 350.407562255859
81.0 335.563720703125
82.0 3132.125
83.0 659.971740722656
84.1 19699.111328125
85.0 1909.40759277344
86.0 1963.32861328125
87.0 597.736022949219
88.0 106.651428222656
88.1 37.1901016235352
89.0 632.821228027344
89.9 283.711090087891
91.0 1837.45849609375
92.0 236.592666625977
92.9 241.036575317383
93.1 27.0448970794678
94.0 59.515941619873
94.9 209.547180175781
96.0 780.498046875
97.0 1446.47607421875
98.0 436.573852539063
99.0 153.011825561523
102.0 394.927459716797
103.0 658.952575683594
104.0 584.716125488281
105.0 418.3017578125
105.8 37.9017868041992
106.0 60.899169921875
106.9 312.558959960938
107.0 34.5497856140137
108.0 6803.78515625
109.0 1307.85400390625
110.0 664.548645019531
110.9 89.7412719726563
111.0 32.1669731140137
112.0 1154.4912109375
113.0 137.495727539063
114.0 60.6580696105957
115.0 1404.33154296875
116.0 554.103332519531
117.0 1517.73620605469
118.0 676.984985351563
118.9 242.010437011719
120.1 30.3391895294189
121.0 1664.59118652344
122.0 1096.26452636719
123.0 3847.3828125
124.0 898.3046875
125.0 465.823516845703
126.1 4427.13427734375
127.1 1991.15087890625
128.1 429690.75
129.1 35881.578125
130.1 2447.833984375
131.0 1052.81970214844
132.0 283.897125244141
132.9 133.872985839844
134.0 537.630554199219
135.0 900.60986328125
136.0 1099.41345214844
137.0 1298.49035644531
138.0 144.419052124023
144.0 183.037521362305
145.0 586.589050292969
146.0 567.94580078125
147.0 319.145690917969
147.9 125.207588195801
149.0 532.937072753906
150.0 646.170837402344
151.0 11624.12109375
152.0 1241.96301269531
153.0 641.992065429688
154.0 34.8587837219238
155.9 35.1070442199707
156.0 18.9021530151367
158.0 110.564727783203
159.0 110.544403076172
160.0 27.3683071136475
162.0 56.4829711914063
162.9 99.8856811523438
163.0 27.2566051483154
164.0 56.3854331970215
165.0 969.442810058594
166.0 156.307006835938
176.0 31.6178150177002
177.0 186.582321166992
177.9 27.2319927215576
190.9 44.7443161010742
192.0 717.469787597656
192.9 202.128341674805
194.0 338.051330566406
195.0 53.8218078613281
207.0 63.3944091796875
236.0 41.5545349121094
236.1 281.272247314453
253.0 29.0880126953125
264.1 383.509857177734
265.0 52.3134155273438
281.9 27.8604869842529
282.0 15.3938798904419
327.0 12.4379844665527
340.9 35.4561157226563
