#"+EI Scan (rt: 1.772-1.813 min, 8 scans) MIX3-6.D  Subtract "
#Point,X(Thompsons),Y(Counts)
41.0 844.914916992188
42.0 4761.890625
43.0 1395.81530761719
44.1 133470.203125
45.0 3648.77685546875
48.9 42.5085983276367
49.0 56.5969390869141
50.0 2633.21411132813
51.0 10704.7919921875
52.0 2245.81176757813
53.0 1910.16479492188
54.0 445.801818847656
55.0 328.850708007813
56.0 2298.26611328125
57.0 329.405090332031
58.4 31.8106365203857
58.5 128.736602783203
58.9 19.6152725219727
60.9 223.411727905273
62.0 960.125305175781
63.0 2074.298828125
64.0 561.847045898438
65.0 1378.40148925781
66.0 464.510192871094
66.9 641.684814453125
67.7 28.7086906433105
68.0 94.8098373413086
69.0 46.8366622924805
72.9 291.680969238281
74.0 746.272033691406
75.0 754.474243164063
76.0 1327.22351074219
77.0 12454.416015625
78.0 4810.390625
79.0 2790.12646484375
80.0 698.287963867188
81.5 3582.80200195313
85.9 40.9854278564453
86.9 26.7310581207275
87.0 53.18701171875
88.9 907.654235839844
90.0 277.648315429688
91.0 918.919616699219
92.0 271.796966552734
93.0 305.210968017578
93.9 88.3986358642578
94.0 58.4397430419922
95.0 21.3074226379395
101.0 23.988941192627
102.0 352.780456542969
103.0 1270.224609375
104.0 1347.74865722656
105.0 3618.36010742188
106.0 3202.6064453125
107.0 1033.42358398438
108.0 111.607894897461
115.0 39.4046630859375
116.0 183.491424560547
117.0 249.181182861328
118.0 361.824676513672
119.0 274.717407226563
120.0 416.585754394531
121.0 730.78955078125
121.9 158.588562011719
130.0 21.9228343963623
131.0 584.721496582031
132.0 200.329544067383
132.9 58.7229919433594
133.0 404.570709228516
134.0 1157.8486328125
135.0 20800.5703125
136.0 46223.4140625
137.0 4184.5361328125
138.0 346.746337890625
145.0 19.4219970703125
146.0 45.1426010131836
147.0 326.727966308594
148.0 488.927886962891
148.9 64.7395172119141
159.9 19.3851051330566
160.0 23.8918113708496
161.0 230.401184082031
162.0 394.047210693359
163.0 661.900512695313
164.0 871.589233398438
165.0 70.1228332519531
176.0 115.182388305664
177.0 306.484649658203
177.9 24.4488735198975
178.0 403.90478515625
179.1 1161.77136230469
180.1 88.5659484863281
191.0 362.513214111328
207.0 29.6675415039063
209.0 19.2719497680664
237.0 23.7786560058594
341.0 18.8450126647949
