#"+EI Scan (rt: 1.888-1.987 min, 18 scans) MIX3-7.D  Subtract "
#Point,X(Thompsons),Y(Counts)
41.0 292.699249267578
42.0 585.857788085938
43.0 162.610702514648
44.0 111.608642578125
45.0 8.45196914672852
49.9 96.206413269043
50.9 18.77121925354
51.0 148.782821655273
51.9 17.7831153869629
52.9 18.4770069122314
54.0 9.21730327606201
55.0 122.112564086914
56.0 473.320861816406
57.0 669.859985351563
58.0 736.082397460938
62.0 70.4361877441406
63.0 373.692535400391
64.0 30.172248840332
64.9 12.5473051071167
65.0 760.835693359375
69.0 18.4132099151611
69.9 10.0220327377319
70.0 555.181457519531
71.0 151.010589599609
72.1 9757.71875
73.0 568.312255859375
73.9 8.50431442260742
74.0 11.3746356964111
74.9 174.883117675781
76.9 135.821472167969
79.0 9.18307018280029
89.0 184.521560668945
90.0 54.8551712036133
91.0 960.916320800781
92.0 45.707405090332
96.0 48.5714149475098
105.0 112.506607055664
110.9 160.129867553711
112.9 8.58240699768066
114.9 71.4909286499023
119.0 539.299560546875
120.0 25.1083641052246
121.0 472.838165283203
127.0 10.2406482696533
132.9 52.6573028564453
133.0 18.5947170257568
134.0 105.743682861328
135.0 63.1688232421875
136.0 36.0361938476563
138.9 232.290283203125
146.9 48.561897277832
149.0 1146.44702148438
149.9 96.4749908447266
162.0 122.240829467773
190.9 9.760910987854
191.9 54.4500770568848
207.0 19.3399658203125
208.0 74.1207885742188
