#"+EI Scan (rt: 1.888-1.988 min, 18 scans) MIX3-5.D  Subtract "
#Point,X(Thompsons),Y(Counts)
40.9 11.3146467208862
41.0 311.280120849609
42.0 554.601135253906
43.0 212.019256591797
44.0 210.69970703125
49.9 202.661560058594
50.9 77.4092407226563
51.0 57.6499252319336
51.9 21.2997570037842
53.0 10.843713760376
54.0 19.2907886505127
55.0 149.152725219727
56.0 142.680816650391
56.0 337.345184326172
57.0 877.606201171875
58.0 719.708984375
61.9 65.6977767944336
63.0 375.804077148438
65.0 774.731994628906
70.0 600.452941894531
71.0 136.546508789063
71.1 37.4484939575195
72.1 9814.6337890625
73.0 18.0753784179688
73.0 456.790649414063
74.0 8.99766159057617
75.0 181.878463745117
77.0 70.6840209960938
77.1 52.9652061462402
78.1 8.8591423034668
79.0 10.1633958816528
89.0 176.071060180664
90.0 65.2434387207031
91.0 161.478576660156
91.0 627.81005859375
92.0 65.7089767456055
96.0 17.660285949707
104.9 18.110050201416
105.0 96.7039947509766
110.9 13.4091901779175
111.0 157.09944152832
113.0 9.03866100311279
114.9 65.2916793823242
119.0 524.770385742188
119.9 20.2792053222656
121.0 421.427398681641
132.9 29.82590675354
134.0 112.315246582031
135.0 12.7630157470703
135.9 147.269622802734
138.9 131.671203613281
140.8 9.00160884857178
147.0 25.4345169067383
147.1 28.6665382385254
149.0 1268.40991210938
149.9 103.958953857422
150.9 9.31445026397705
162.0 123.185386657715
192.0 38.4922828674316
208.0 26.3290710449219
209.0 8.80870723724365
