#"+EI Scan (rt: 2.087-2.139 min, 10 scans) MIX3-8.D  Subtract "
#Point,X(Thompsons),Y(Counts)
41.0 5146.44970703125
42.0 7514.94873046875
43.0 1259.91320800781
44.0 5677.1484375
45.0 193.806854248047
48.9 65.1159820556641
50.0 2752.70825195313
51.0 1740.86450195313
52.0 263.443267822266
53.0 224.109954833984
54.0 727.401000976563
55.0 881.531066894531
56.0 5079.64501953125
57.0 13251.869140625
58.0 669.480163574219
60.9 247.388717651367
62.0 163.921325683594
63.0 501.412292480469
65.0 116.547157287598
67.0 32.8723678588867
68.0 410.138854980469
69.0 349.159027099609
70.1 7350.2275390625
71.1 1272.67944335938
72.1 121705.890625
73.1 6141.82177734375
74.0 1648.09399414063
75.0 7515.0966796875
76.0 1761.431640625
77.0 1346.57788085938
78.0 192.960357666016
78.9 15.61989402771
83.9 233.634368896484
84.9 920.9228515625
85.9 170.296920776367
86.9 369.443664550781
89.0 477.705017089844
90.0 81.8065719604492
91.0 311.446624755859
97.0 15.9908924102783
98.9 88.2614593505859
101.0 221.650543212891
102.0 194.4560546875
103.0 161.925979614258
103.9 159.551345825195
104.9 126.937049865723
105.0 64.2984771728516
109.9 240.14372253418
111.0 10918.45703125
112.0 1113.73486328125
113.0 3635.22534179688
113.9 380.127532958984
115.0 458.17919921875
115.9 149.027618408203
117.0 209.785110473633
118.0 126.670143127441
119.0 57.8831558227539
122.9 68.5602416992188
125.0 760.926330566406
126.0 92.0922241210938
127.0 448.295227050781
128.0 227.189865112305
128.9 67.7721099853516
130.0 78.234375
131.0 97.4831924438477
132.0 71.9771118164063
132.9 114.249893188477
133.0 22.3154106140137
135.0 74.5675430297852
135.9 138.873016357422
136.9 98.0522613525391
137.9 160.817764282227
139.0 5886.85498046875
139.9 589.176635742188
140.9 1935.57495117188
141.9 159.505676269531
144.0 57.0326232910156
145.0 186.770523071289
146.0 293.680114746094
147.0 2048.79248046875
148.0 192.789947509766
148.9 132.192901611328
150.9 72.4615783691406
152.0 117.706871032715
153.0 17.6070022583008
154.0 998.460632324219
155.0 151.405609130859
156.0 327.417541503906
163.9 88.3284301757813
165.9 178.577529907227
166.9 173.818923950195
167.9 53.5112991333008
169.0 51.8178215026855
178.0 15.5943660736084
180.0 152.301895141602
181.0 144.112426757813
182.0 1300.52770996094
183.0 176.022171020508
184.0 384.311309814453
190.9 4.24060535430908
207.0 36.3903198242188
208.0 89.5321273803711
209.0 56.5570335388184
