#"+EI Scan (rt: 3.427-3.474 min, 9 scans) MIX3-8.D  Subtract "
#Point,X(Thompsons),Y(Counts)
41.0 6155.431640625
42.0 4923.34619140625
43.0 1217.24536132813
44.1 91525.390625
45.0 2408.54931640625
50.0 431.531707763672
50.9 24.8022994995117
51.0 685.205078125
51.9 162.912094116211
53.0 852.728393554688
53.9 22.6242275238037
54.0 155.521179199219
55.0 1342.00317382813
56.0 1045.24523925781
57.1 9617.16796875
58.0 1463.57568359375
60.9 210.516784667969
62.0 1326.6982421875
63.0 4416.513671875
64.0 729.638061523438
65.0 6665.33935546875
66.0 488.439575195313
67.0 136.884292602539
68.0 227.191711425781
69.0 230.273056030273
70.0 982.900939941406
71.0 141.639434814453
72.0 60.8509941101074
73.0 9.20710563659668
74.0 228.781433105469
74.9 111.058158874512
75.9 143.965591430664
77.0 486.643402099609
77.9 128.419052124023
79.0 332.398406982422
82.0 89.9952850341797
84.1 3574.73681640625
85.0 779.194396972656
86.0 43.5829467773438
89.0 225.95524597168
89.1 20.3847427368164
90.0 129.644393920898
91.0 3385.1865234375
92.0 531.538635253906
93.0 521.068115234375
94.0 38.3716697692871
95.0 124.033271789551
96.0 66.9673309326172
98.0 402.052276611328
99.1 278.963775634766
100.1 55177.78125
101.1 4020.2451171875
102.0 176.833450317383
103.0 106.699256896973
104.0 34.0453414916992
104.8 20.3075542449951
105.0 104.592422485352
114.9 19.8081130981445
116.1 17.4219741821289
117.0 377.569519042969
117.1 58.2371978759766
117.9 18.3602561950684
118.0 308.002838134766
119.0 1347.38830566406
120.0 698.443359375
121.0 5650.22412109375
122.0 818.0908203125
122.9 223.351776123047
126.9 20.5471668243408
127.0 46.9958801269531
131.0 18.4528274536133
132.9 68.6233062744141
134.0 66.5921783447266
134.9 358.048187255859
144.9 17.8376388549805
145.0 55.6574897766113
146.0 1590.83959960938
147.0 930.498046875
148.0 642.3046875
149.0 11015.4072265625
150.0 2888.17553710938
151.0 297.571228027344
154.9 18.7590713500977
161.9 97.3814392089844
163.0 762.082153320313
164.0 88.7961959838867
172.0 64.5008239746094
174.0 196.087631225586
175.0 118.557495117188
176.0 197.081436157227
177.0 404.717803955078
178.0 367.703979492188
190.9 17.7647247314453
191.9 17.0438175201416
206.1 424.791290283203
207.0 59.694580078125
208.0 34.0768203735352
216.0 93.0307235717773
234.0 51.9419708251953
234.1 1426.48876953125
235.1 201.967514038086
