#"+EI Scan (rt: 2.110-2.180 min, 13 scans) MIX4-6.D  Subtract "
#Point,X(Thompsons),Y(Counts)
41.0 398.098815917969
42.0 536.359680175781
43.0 347.47216796875
45.0 26.9093017578125
46.9 30.3756446838379
47.0 85.559196472168
49.9 189.465072631836
51.0 502.186889648438
52.0 82.825065612793
53.0 178.096374511719
54.0 13.4806613922119
55.0 313.229675292969
56.0 2234.76220703125
57.0 624.814453125
58.0 14198.1845703125
58.9 18.7048606872559
59.0 555.390808105469
62.0 26.3039417266846
62.9 106.265335083008
63.0 165.68879699707
63.9 24.8822650909424
64.0 12.1159648895264
65.0 636.082885742188
69.9 25.4205169677734
71.0 284.057281494141
74.0 38.3420944213867
75.0 1029.15234375
75.9 29.2529163360596
76.0 28.4242343902588
77.0 1170.29846191406
78.0 313.982452392578
79.0 533.075988769531
79.1 16.3568801879883
85.0 260.735321044922
86.0 176.148315429688
89.0 572.839904785156
90.0 106.107559204102
91.0 1851.33154296875
92.0 142.950469970703
96.1 24.4715042114258
102.0 42.7748947143555
102.1 28.3884887695313
103.0 491.200653076172
104.0 115.687606811523
105.0 1279.61303710938
106.0 153.901596069336
114.8 13.3866634368896
115.0 139.253875732422
117.0 27.655704498291
119.0 5987.48486328125
120.0 554.998657226563
128.0 11.8246564865112
129.0 92.2016525268555
131.0 185.181716918945
133.0 863.999877929688
134.0 177.10417175293
148.1 69.2524795532227
157.9 12.1099720001221
174.0 12.1572456359863
190.9 44.1175651550293
191.0 138.461776733398
207.0 51.8505859375
208.0 25.5270843505859
208.9 41.548957824707
