#"+EI Scan (rt: 2.955-3.002 min, 9 scans) MIX4-1.D  Subtract "
#Point,X(Thompsons),Y(Counts)
41.0 542.925170898438
42.0 4129.98486328125
43.0 737.425659179688
44.0 3096.53686523438
45.0 224.848297119141
50.0 365.207458496094
51.0 567.687438964844
51.9 119.112091064453
53.0 526.956359863281
54.0 255.588928222656
55.0 960.348449707031
56.0 3354.75463867188
57.0 1513.33740234375
58.0 313.916534423828
61.0 172.25129699707
61.9 22.1634292602539
62.0 1041.54638671875
63.0 3012.19067382813
63.8 26.8158054351807
64.0 364.157684326172
65.0 3313.43896484375
66.0 263.511993408203
69.0 17.9871120452881
70.1 2443.71044921875
71.1 1017.72406005859
72.1 78138.9765625
73.1 3836.81372070313
74.0 311.170745849609
74.9 110.242721557617
75.9 129.904388427734
77.0 459.545562744141
77.9 24.6257743835449
78.0 91.8101501464844
78.9 17.5583572387695
79.0 223.298965454102
88.9 48.2688140869141
89.0 118.554656982422
89.9 66.6805114746094
91.0 1698.93029785156
91.9 269.801147460938
92.9 56.8605613708496
93.0 38.6277122497559
96.0 2.82439613342285
101.9 36.9619293212891
102.8 17.7817935943604
103.0 23.3565769195557
104.0 83.5295104980469
105.0 129.833572387695
117.0 17.4000511169434
118.0 35.5344009399414
119.0 620.510559082031
120.0 318.572631835938
121.0 2145.82446289063
122.0 332.862457275391
127.0 16.0860290527344
127.0 49.3383636474609
132.9 92.6438369750977
135.0 959.456481933594
135.9 58.8158760070801
145.9 19.6921043395996
146.9 245.728820800781
148.0 176.529922485352
149.0 2790.412109375
150.0 311.770233154297
154.9 21.1911697387695
160.0 24.2257766723633
162.0 189.389877319336
164.0 1758.78356933594
164.9 52.6294288635254
165.0 147.179946899414
172.0 78.6769561767578
176.0 160.31005859375
176.9 159.782638549805
177.9 158.103103637695
178.0 219.568344116211
190.0 76.4294281005859
190.1 55.1596870422363
190.9 131.203353881836
204.0 43.5186920166016
207.0 52.6195068359375
208.0 15.8422317504883
281.0 16.9734630584717
