#"+EI Scan (rt: 1.801-1.848 min, 9 scans) MIX5-8.D  Subtract "
#Point,X(Thompsons),Y(Counts)
40.0 138.411163330078
41.0 4140.34619140625
42.1 23339.142578125
43.0 3063.65112304688
44.1 21286.107421875
45.0 1189.52307128906
45.8 23.3858413696289
46.0 51.7830200195313
48.9 40.2302474975586
50.0 2074.96337890625
51.0 3698.73828125
52.0 1204.46984863281
53.0 960.518432617188
54.0 1728.845703125
55.0 4712.63037109375
56.1 21186.39453125
57.0 9131.0712890625
58.0 2057.59814453125
59.0 122.877227783203
61.0 299.122344970703
62.0 1742.72412109375
63.0 6276.27685546875
64.0 1875.59265136719
65.0 19811.01953125
66.0 1237.72827148438
66.9 20.6215591430664
67.0 95.8512115478516
68.0 243.795974731445
68.9 24.4909439086914
69.1 100.665985107422
69.2 23.2537364959717
70.1 15691.04296875
71.1 6326.64208984375
72.1 479838.0625
73.1 23756.259765625
74.0 1083.73168945313
75.0 808.591552734375
76.0 650.024291992188
77.0 2334.5888671875
78.0 723.298156738281
79.0 323.620513916016
79.0 295.858520507813
79.9 17.2171649932861
80.2 38.340705871582
85.0 112.311073303223
86.0 464.321716308594
86.8 17.0024852752686
87.0 552.815612792969
88.0 162.809555053711
89.0 6800.41796875
90.0 2905.31030273438
91.0 28070.453125
92.0 2795.4736328125
93.0 339.669067382813
95.9 4.64437866210938
98.0 93.0595245361328
100.9 59.2742233276367
101.1 28.3001441955566
102.0 438.054809570313
103.0 1297.6767578125
104.0 673.611938476563
105.0 3240.904296875
106.0 354.519805908203
110.8 23.6903514862061
111.0 92.7723541259766
115.0 2006.36437988281
116.0 610.113525390625
117.0 1442.08166503906
118.0 526.443786621094
119.0 13737.3828125
120.0 1356.74816894531
121.0 49.914867401123
127.0 272.64599609375
128.0 494.00634765625
129.0 381.958343505859
130.0 483.542846679688
131.0 805.655212402344
132.0 958.886291503906
133.0 1506.291015625
133.9 24.9016246795654
134.0 131.561965942383
138.9 41.9822845458984
144.0 364.228759765625
145.0 799.356811523438
146.0 382.784332275391
146.1 685.944641113281
147.0 652.593566894531
148.1 2044.333984375
149.0 264.411743164063
154.9 17.5955390930176
156.0 17.5581283569336
157.0 35.4847412109375
158.0 286.787139892578
159.0 72.8107833862305
160.1 1537.84594726563
161.0 601.573120117188
162.1 424.630737304688
172.0 68.0119323730469
173.0 64.2066268920898
174.1 1326.8701171875
175.0 402.223022460938
176.1 754.353271484375
177.0 87.2749938964844
188.0 323.702880859375
189.1 153.435241699219
190.1 198.857299804688
191.1 506.137420654297
192.1 39.7879104614258
208.9 19.8127422332764
