#"+EI Scan (rt: 1.801-1.848 min, 9 scans) MIX5-10.D  Subtract "
#Point,X(Thompsons),Y(Counts)
41.0 4021.86352539063
42.0 23083.173828125
43.0 3134.4208984375
44.1 20364.80859375
45.0 1190.01708984375
46.0 20.9177379608154
46.1 19.6047973632813
49.0 17.5436630249023
50.0 2156.35009765625
51.0 3765.06689453125
52.0 1203.98278808594
53.0 957.725280761719
54.0 1723.72839355469
55.0 4818.20654296875
56.0 21276.052734375
57.0 9116.537109375
58.0 1617.076171875
59.0 127.612602233887
59.1 41.0385055541992
60.9 291.367950439453
62.0 1764.70178222656
63.0 6473.298828125
64.0 1846.73547363281
65.0 19790.75390625
66.0 1212.10876464844
67.0 112.5380859375
68.0 299.135406494141
69.0 91.4341659545898
69.1 74.2734222412109
70.1 15684.248046875
71.1 6318.392578125
72.1 482023.34375
73.1 23581.814453125
74.0 1094.85961914063
75.0 754.310363769531
76.0 629.988342285156
77.0 2354.8408203125
78.0 757.77001953125
78.9 20.9832363128662
79.0 575.331359863281
80.3 17.2842330932617
84.0 34.0119171142578
84.9 27.8628311157227
85.0 67.6209335327148
86.0 457.032653808594
86.2 39.3790855407715
86.8 17.53782081604
87.0 524.195068359375
88.0 184.512756347656
89.0 6894.01953125
90.0 2926.2802734375
91.0 28001.923828125
92.0 2902.95849609375
92.9 17.8471660614014
93.0 319.428588867188
94.1 20.8730392456055
95.8 17.4568405151367
98.0 87.2875061035156
101.0 64.8775100708008
101.9 18.4113216400146
102.0 423.27099609375
103.0 1269.54150390625
104.0 703.445861816406
105.0 3401.51245117188
106.0 339.642150878906
110.9 111.175148010254
115.0 1967.73779296875
116.0 613.035400390625
117.0 1513.42590332031
118.0 554.706237792969
119.0 13531.8876953125
120.0 1379.77917480469
121.0 106.181022644043
127.0 251.438888549805
128.0 544.348083496094
129.0 349.263549804688
130.0 506.6103515625
131.0 779.871154785156
132.0 950.413818359375
133.0 1483.90405273438
133.9 21.0380783081055
134.0 186.58122253418
138.8 41.4124336242676
144.0 338.313507080078
145.0 836.987670898438
146.0 1049.14428710938
147.0 674.808898925781
148.1 2003.40625
149.0 181.192153930664
154.9 17.4922561645508
155.9 17.9993762969971
158.0 320.792114257813
159.0 93.4120559692383
160.1 1459.00756835938
161.0 618.250854492188
162.0 427.043334960938
172.0 66.6030349731445
173.0 78.2233963012695
174.1 1328.43701171875
175.1 387.125366210938
176.0 89.7851257324219
176.1 699.642395019531
177.0 111.644645690918
188.0 286.614654541016
189.1 145.6875
190.1 186.544921875
190.9 17.5102691650391
191.1 475.333831787109
192.0 80.1942977905273
208.0 49.7591094970703
208.9 5.1661376953125
