#"+EI Scan (rt: 1.918-1.970 min, 10 scans) MIX5-10.D  Subtract "
#Point,X(Thompsons),Y(Counts)
41.0 1958.72485351563
42.0 20463.94140625
43.0 2578.51904296875
44.0 17499.712890625
45.0 929.328979492188
46.0 33.5152206420898
49.0 296.595916748047
50.0 5891.0712890625
51.0 3458.11547851563
52.0 494.396484375
53.0 518.174377441406
54.0 1610.31030273438
55.0 3469.54077148438
56.0 16910.734375
57.0 7618.232421875
58.0 1032.53552246094
59.9 55.0470771789551
61.0 628.351440429688
62.0 501.535064697266
63.0 1110.87121582031
64.0 120.114891052246
65.0 217.130859375
66.0 33.4938583374023
68.0 177.772842407227
69.2 162.269973754883
70.1 12315.8818359375
71.1 4495.630859375
72.1 334180.15625
73.1 17071.607421875
74.0 3715.49975585938
75.0 15416.6806640625
76.0 3546.173828125
77.0 2809.03540039063
78.0 424.861511230469
79.0 79.7212066650391
80.5 16.3659496307373
80.6 16.5012054443359
83.9 541.071350097656
85.0 1980.52758789063
86.0 474.409515380859
86.0 19.9730339050293
86.8 21.2129249572754
86.9 827.234741210938
88.0 110.225563049316
89.0 886.596374511719
90.0 181.08332824707
91.0 179.80908203125
95.8 15.4902067184448
96.0 72.9581756591797
96.9 139.546112060547
97.0 15.2774753570557
97.9 100.590927124023
98.1 22.6818294525146
98.9 18.6533660888672
99.0 263.939880371094
99.9 60.184986114502
101.0 486.692047119141
102.0 650.299011230469
103.0 1571.52856445313
104.0 384.788879394531
105.0 184.385025024414
107.9 39.1270942687988
108.9 51.0900955200195
110.0 414.8916015625
111.0 18330.6875
112.0 1972.60803222656
113.0 6027.85595703125
114.0 745.713928222656
115.0 707.16796875
116.0 259.154968261719
117.0 267.604400634766
118.0 124.338172912598
119.0 77.35009765625
122.9 146.247848510742
125.0 1283.74060058594
126.0 95.5028839111328
126.8 17.2543029785156
127.0 463.594787597656
128.0 75.2802886962891
130.0 203.728713989258
131.0 678.692199707031
131.9 23.9830913543701
132.0 308.914123535156
133.0 753.601440429688
135.9 120.81649017334
137.0 276.197204589844
137.9 187.462219238281
139.0 7528.78076171875
140.0 763.724060058594
141.0 2466.23974609375
141.9 228.305572509766
143.0 34.4534187316895
144.0 198.514465332031
145.0 871.12939453125
146.0 192.899780273438
149.0 141.471557617188
149.9 110.77823638916
150.9 88.2731552124023
152.0 290.630401611328
153.0 50.0480728149414
153.9 39.9235610961914
154.0 23.8882675170898
160.0 291.886474609375
161.0 244.600341796875
161.1 52.8382987976074
164.9 127.733863830566
166.0 550.382141113281
167.0 319.579986572266
168.0 1007.40441894531
169.0 134.586395263672
170.0 266.460113525391
174.0 18.6512603759766
178.0 99.5498199462891
180.0 587.085266113281
181.0 148.838012695313
182.0 626.310241699219
183.0 104.229591369629
184.0 112.595321655273
191.0 15.3778305053711
194.0 716.985229492188
195.0 161.360870361328
196.0 676.057800292969
196.9 69.2560577392578
197.9 90.5719604492188
198.1 21.5592308044434
208.0 190.623565673828
208.9 67.0117416381836
209.0 111.380798339844
210.0 229.580230712891
211.0 140.358810424805
