#"+EI Scan (rt: 4.908-4.948 min, 8 scans) MIX5-1.D  Subtract "
#Point,X(Thompsons),Y(Counts)
41.0 1949.66796875
42.0 2922.53051757813
43.0 1707.37158203125
44.0 2554.04296875
45.0 53.6430740356445
46.0 63.1244506835938
50.0 333.533386230469
51.0 705.442565917969
52.0 194.361099243164
53.0 942.826110839844
54.0 994.687133789063
55.0 3443.822265625
56.0 8243.435546875
57.0 935.946411132813
58.1 6037.18505859375
59.0 203.640411376953
60.9 136.988037109375
62.0 967.624328613281
63.0 3957.98022460938
64.0 625.127502441406
65.0 7416.9296875
66.0 422.287628173828
66.1 104.313003540039
67.0 189.851531982422
67.9 67.5894927978516
68.0 558.595764160156
69.0 450.624694824219
70.0 2977.94458007813
71.1 3380.47998046875
72.0 2569.09326171875
73.0 429.113830566406
74.0 275.999694824219
74.9 169.9833984375
76.0 202.580368041992
77.0 801.576782226563
78.0 228.235580444336
79.0 395.084594726563
80.0 118.294883728027
81.0 174.335540771484
82.0 461.778991699219
83.0 266.981170654297
84.1 3444.89697265625
85.0 329.317291259766
86.1 3629.849609375
87.0 148.029846191406
87.1 99.3833160400391
88.1 21.9428367614746
89.0 288.262268066406
90.0 153.953262329102
91.0 2639.44848632813
92.0 449.466125488281
93.0 275.528289794922
93.9 19.1280860900879
94.5 27.4799671173096
94.6 22.4042530059814
95.0 19.2860794067383
96.0 163.833572387695
96.0 182.537841796875
97.0 103.57373046875
98.1 2097.21215820313
99.1 2023.20544433594
100.1 3376.77880859375
101.0 258.586975097656
101.9 116.116516113281
102.1 50.2307052612305
103.0 420.888305664063
104.0 163.564727783203
105.0 342.229370117188
106.9 20.6232051849365
110.0 18.9317302703857
112.1 1702.46606445313
113.0 215.365493774414
114.0 83.3496704101563
115.0 444.725006103516
115.9 73.5009918212891
116.1 27.0905628204346
117.0 265.391815185547
117.9 174.377624511719
119.0 984.184326171875
119.9 41.252571105957
120.0 489.430206298828
121.0 7254.28955078125
122.0 970.185363769531
122.9 95.9774780273438
125.3 21.3592853546143
126.1 2096.51635742188
127.1 1294.27795410156
128.1 247308.828125
129.1 23319.09765625
130.1 1093.40905761719
131.0 343.270812988281
132.0 183.08903503418
132.9 215.393997192383
133.9 51.4235076904297
135.0 2429.78588867188
136.0 168.010955810547
136.1 25.3492698669434
141.0 54.9022979736328
145.0 236.06526184082
146.0 165.299041748047
147.0 591.154907226563
148.0 429.512512207031
149.0 12106.396484375
150.0 1280.08215332031
151.0 114.378219604492
154.0 18.9084625244141
159.0 107.374519348145
160.0 234.321624755859
161.0 236.848114013672
161.9 28.6735897064209
162.0 71.7534790039063
162.9 47.493106842041
163.0 23.4474830627441
164.0 743.745971679688
164.9 19.2629375457764
170.0 354.043029785156
173.0 27.8529739379883
174.0 134.269561767578
175.0 275.819549560547
175.0 20.7696933746338
175.9 32.5887870788574
176.0 295.327301025391
177.0 522.624694824219
178.0 94.2758331298828
187.1 19.3158226013184
188.0 39.2232284545898
189.0 205.440063476563
190.0 588.46240234375
190.9 70.0272369384766
191.0 101.697982788086
198.0 432.10498046875
199.0 38.290283203125
202.0 150.519622802734
202.9 21.8475341796875
203.1 22.9646186828613
204.0 345.266937255859
205.0 173.623565673828
206.1 1344.45373535156
207.0 193.231750488281
208.0 38.1404724121094
218.0 192.040679931641
228.1 526.599609375
232.0 196.505615234375
233.0 87.215576171875
234.1 513.041320800781
235.1 27.483455657959
257.1 474.816375732422
258.1 19.0888023376465
260.0 23.7048206329346
275.0 13.3607845306396
275.1 25.7868385314941
