#"+EI Scan (rt: 1.515-1.556 min, 8 scans) MIX6-4.D  Subtract "
#Point,X(Thompsons),Y(Counts)
40.0 154.661743164063
41.0 2955.36596679688
42.0 9131.958984375
43.1 3747.21118164063
44.1 316592.75
45.1 8776.6474609375
46.1 21.2674217224121
46.5 85.7840805053711
49.0 107.633819580078
50.0 3184.91918945313
51.0 8487.5458984375
52.0 7047.001953125
53.0 3431.42065429688
54.0 855.123474121094
55.0 1176.97106933594
56.0 1800.76147460938
57.0 728.466735839844
58.5 881.875854492188
59.5 535.022583007813
59.6 227.063186645508
61.0 285.682495117188
62.0 1398.05200195313
63.0 4967.00439453125
64.0 2044.99938964844
65.0 5983.3505859375
66.0 851.863525390625
67.0 69.7532043457031
67.1 686.369140625
67.7 21.7895126342773
68.9 19.0738868713379
69.0 63.9064407348633
73.0 104.244812011719
74.3 441.117370605469
75.0 2972.79541015625
76.0 1194.05859375
77.0 17819.404296875
78.0 20717.0078125
79.0 6175.6806640625
80.0 1786.18884277344
81.0 459.084869384766
81.6 21.3063907623291
81.9 73.0204620361328
82.0 79.7050476074219
85.0 83.9344787597656
86.0 192.432220458984
87.0 276.786987304688
88.0 105.645416259766
89.0 5192.248046875
90.0 2576.80590820313
91.0 13078.853515625
92.0 3091.11376953125
93.0 1145.8955078125
94.0 642.680908203125
95.0 165.379455566406
95.9 6.17538452148438
96.0 3.39878082275391
100.9 97.9556121826172
102.0 438.369598388672
102.0 187.961486816406
103.0 1610.09045410156
104.0 1311.65490722656
105.0 1414.36828613281
106.0 4574.39697265625
107.0 9067.40234375
108.0 1740.99597167969
109.0 308.586151123047
115.0 1657.77575683594
116.0 679.850402832031
117.0 1606.53332519531
118.0 2570.00561523438
119.0 2229.09033203125
120.0 916.985534667969
121.1 42279.3203125
122.1 94102.375
123.0 8544.685546875
124.0 545.925903320313
128.0 20.2920017242432
130.0 265.214965820313
131.0 650.252319335938
132.0 970.127502441406
133.0 980.90234375
134.0 4004.88134765625
135.0 1770.53979492188
135.9 20.7309913635254
136.0 200.357147216797
136.1 92.9797668457031
145.0 43.8941993713379
146.0 218.524459838867
147.0 938.662231445313
148.0 1646.314453125
148.9 33.2866249084473
149.0 1090.40942382813
150.1 2520.46899414063
151.0 255.253463745117
162.0 146.955978393555
162.1 99.8296890258789
163.0 676.974853515625
164.1 848.156372070313
165.1 1623.40991210938
166.1 156.386795043945
176.9 20.2236862182617
177.1 27.994571685791
208.0 35.0883636474609
208.9 7.99622344970703
