#"+EI Scan (rt: 1.515-1.556 min, 8 scans) MIX6-8.D  Subtract "
#Point,X(Thompsons),Y(Counts)
41.0 2961.01708984375
42.0 8878.0625
43.1 3815.4599609375
44.1 316432.25
45.1 8914.98828125
46.3 29.3544673919678
46.5 79.1138229370117
46.6 20.8747482299805
49.0 75.5930252075195
50.0 3181.13671875
51.0 8384.9931640625
52.0 7035.9443359375
53.0 3455.24365234375
54.0 830.201232910156
55.0 1252.51599121094
56.0 1711.154296875
57.0 804.140197753906
58.5 876.379455566406
59.5 543.556579589844
59.6 179.196594238281
61.0 263.888885498047
62.0 1478.39294433594
63.0 4894.94140625
64.0 2047.28686523438
65.0 6037.861328125
66.0 900.610900878906
67.0 28.8744239807129
67.1 472.647338867188
67.3 251.713806152344
67.5 161.356292724609
69.0 47.7151641845703
70.0 21.5175514221191
73.0 84.2840423583984
73.9 31.7244033813477
74.0 228.189117431641
74.2 216.560974121094
75.0 2954.87768554688
76.0 1218.68078613281
77.0 17940.865234375
78.0 20751.0390625
79.0 6193.400390625
80.0 1741.65942382813
80.9 20.0872898101807
81.0 411.009643554688
81.9 96.2731475830078
82.1 39.0361251831055
85.0 44.5964508056641
85.9 214.177947998047
87.0 272.038635253906
87.9 27.3803768157959
88.0 55.6427917480469
89.0 5391.75537109375
90.0 2407.87036132813
91.0 13116.6630859375
92.0 3099.3056640625
93.0 1179.78381347656
94.0 641.15087890625
94.9 47.7082786560059
95.0 101.790672302246
95.9 112.541534423828
100.9 62.7858924865723
102.0 579.330078125
103.0 1670.91650390625
104.0 1341.54833984375
105.0 1483.51354980469
106.0 4533.431640625
107.0 9014.875
108.0 1839.36950683594
109.0 315.665924072266
115.0 1622.2939453125
116.0 667.237548828125
117.0 1636.17907714844
118.0 2621.14575195313
119.0 2306.5947265625
119.9 38.832950592041
120.0 904.090942382813
121.1 42485.40234375
122.1 94285.7265625
123.0 8532.818359375
124.0 551.240478515625
128.0 44.659423828125
130.0 258.547485351563
131.0 613.2255859375
132.0 919.393493652344
133.0 1034.7646484375
134.0 3997.87646484375
135.0 1687.20556640625
136.0 251.609588623047
145.0 20.4505176544189
145.9 19.515645980835
146.0 196.312377929688
147.0 1008.84631347656
148.0 1669.19421386719
149.0 1118.40649414063
150.1 2642.42407226563
151.0 273.436462402344
162.0 264.550476074219
163.0 672.777526855469
164.1 851.063903808594
165.1 1698.72998046875
166.0 176.528900146484
176.9 19.3243179321289
177.0 20.7681674957275
207.9 100.382461547852
