#"+EI Scan (rt: 1.819-1.865 min, 9 scans) MIX6-4.D  Subtract "
#Point,X(Thompsons),Y(Counts)
41.0 3484.15966796875
42.0 5070.5478515625
43.0 882.728149414063
44.0 3407.09545898438
45.0 144.417236328125
50.0 561.643005371094
51.0 1007.09387207031
52.0 372.583557128906
53.0 262.179382324219
54.0 429.038696289063
55.0 615.424133300781
56.0 3348.50341796875
57.0 7983.50927734375
58.0 438.816375732422
61.0 17.6242218017578
62.0 369.292846679688
63.0 1572.595703125
64.0 487.733276367188
65.0 5398.68798828125
66.0 348.657440185547
68.0 250.656768798828
69.0 254.827209472656
70.0 4194.43408203125
71.1 1150.22912597656
72.1 97456.1640625
73.1 4947.71337890625
74.0 235.952255249023
75.0 189.232162475586
76.0 148.765365600586
77.0 660.048828125
78.0 190.985656738281
79.0 154.564361572266
80.0 50.132740020752
80.1 51.4685745239258
81.0 18.9814720153809
86.0 62.7322235107422
86.9 64.0620803833008
88.0 17.1090888977051
89.0 1781.40478515625
89.8 18.7649040222168
90.0 808.831298828125
91.0 8997.0224609375
92.0 904.507141113281
92.8 22.7728958129883
93.0 78.9972686767578
95.9 19.3239917755127
102.0 64.9797668457031
103.0 227.611953735352
103.9 66.7177734375
105.0 633.376831054688
106.0 35.9364814758301
115.0 503.856994628906
115.9 146.46061706543
117.0 372.867858886719
118.0 220.236328125
119.0 3709.72119140625
120.0 465.087066650391
121.0 216.225067138672
122.0 35.2597122192383
127.0 18.4146404266357
128.0 166.616516113281
129.0 103.805686950684
129.9 88.4743270874023
130.9 33.3383712768555
131.0 146.815353393555
132.0 275.874237060547
132.9 21.8739147186279
133.0 77.9310302734375
134.0 1185.30200195313
135.0 100.883827209473
135.1 52.361213684082
143.0 18.7758979797363
144.0 184.860168457031
144.9 58.6178932189941
145.0 132.627807617188
146.0 205.905471801758
147.0 778.09619140625
148.0 94.3238220214844
158.0 67.8105621337891
160.0 221.053604125977
161.0 173.813858032227
162.1 1714.287109375
163.0 88.2203063964844
163.0 146.090393066406
191.0 17.4170665740967
209.0 17.1496677398682
