#"+EI Scan (rt: 1.818-1.865 min, 9 scans) MIX6-3.D  Subtract "
#Point,X(Thompsons),Y(Counts)
41.0 3567.29272460938
42.0 4721.82861328125
43.0 780.020080566406
44.0 3320.17626953125
45.0 173.609527587891
50.0 513.437561035156
51.0 1008.79949951172
52.0 361.304534912109
53.0 242.662384033203
54.0 416.106170654297
55.0 721.729919433594
56.0 3385.8505859375
57.0 7878.62255859375
58.0 360.816528320313
62.0 368.277008056641
63.0 1507.708984375
64.0 452.985656738281
65.0 5517.494140625
66.0 330.499847412109
67.1 18.1222915649414
68.0 272.050659179688
69.0 250.160675048828
70.0 4295.21728515625
71.1 1125.53979492188
72.1 96669.9296875
73.1 4837.5009765625
74.0 237.501892089844
74.9 187.691848754883
76.0 147.08659362793
77.0 675.586791992188
78.0 222.603820800781
79.0 169.791915893555
80.0 65.2438812255859
80.9 19.6254367828369
81.0 19.2014083862305
85.0 17.4789695739746
86.0 64.0037460327148
86.9 53.6102294921875
89.0 1746.61962890625
89.9 26.4373836517334
90.0 799.750854492188
91.0 8719.708984375
92.0 935.205200195313
93.0 105.721099853516
95.8 34.04052734375
96.0 76.7627182006836
102.0 20.1096496582031
103.0 233.488906860352
103.9 41.9453086853027
105.0 655.361389160156
106.0 19.5547561645508
114.9 19.6627655029297
115.0 461.041381835938
116.0 167.482482910156
117.0 342.115203857422
118.0 221.828536987305
119.0 3777.93017578125
120.0 443.927337646484
121.0 230.69270324707
121.9 38.5559234619141
122.0 95.1813201904297
128.0 181.865051269531
129.0 127.630096435547
130.0 102.121910095215
131.0 189.980895996094
132.0 267.272094726563
133.0 161.99137878418
134.0 1117.93823242188
135.0 167.341201782227
144.0 166.431793212891
145.0 165.489776611328
146.0 127.841659545898
146.0 53.345085144043
147.0 811.766967773438
148.0 112.490180969238
158.0 67.6227722167969
160.0 206.171600341797
161.0 159.615173339844
162.0 1706.7412109375
163.0 267.422424316406
190.9 42.9985809326172
191.0 17.6433982849121
207.9 28.2757873535156
208.9 35.8409957885742
