#"+EI Scan (rt: 1.929-1.976 min, 9 scans) MIX6-6.D  Subtract "
#Point,X(Thompsons),Y(Counts)
41.0 711.498168945313
42.0 2299.87841796875
43.0 1297.31628417969
44.0 365.572143554688
50.0 989.952270507813
51.0 4012.42749023438
52.0 747.164367675781
53.0 702.195495605469
54.0 245.1591796875
55.0 314.434906005859
56.0 4707.93603515625
56.9 53.6603012084961
57.0 1115.26025390625
58.1 95535.9921875
59.1 3650.66625976563
60.0 53.490291595459
60.9 20.7613201141357
62.0 395.619018554688
63.0 1101.51391601563
64.0 252.330352783203
65.0 897.706787109375
66.0 158.29296875
67.0 223.82438659668
70.0 133.318313598633
70.0 71.1244812011719
71.0 65.4134368896484
71.9 37.2051162719727
73.0 37.4890060424805
73.2 19.0935306549072
74.0 262.405242919922
75.0 279.850677490234
76.0 530.873168945313
77.0 4983.78857421875
78.0 1368.13708496094
79.0 1066.93334960938
80.0 51.6727142333984
80.1 77.4587783813477
80.8 50.4435691833496
80.9 52.1163482666016
87.2 18.1953372955322
87.4 23.4244766235352
88.5 112.824501037598
88.6 1358.65295410156
88.8 32.8627700805664
89.9 57.037956237793
90.0 83.0558166503906
91.0 530.183715820313
92.0 117.979232788086
92.1 36.5973052978516
93.0 97.8905487060547
94.0 63.1137275695801
95.4 27.8417739868164
95.5 91.2000732421875
95.6 29.2364292144775
95.8 72.6346206665039
102.0 176.883026123047
103.0 801.427001953125
104.0 538.561706542969
105.0 1538.26818847656
106.0 501.217224121094
106.9 17.1905384063721
107.0 253.491561889648
108.0 17.9735546112061
117.0 137.632675170898
118.0 310.659057617188
118.9 215.988555908203
120.0 373.389129638672
121.0 586.753967285156
122.0 164.484436035156
130.9 24.8582572937012
131.0 340.006134033203
132.0 215.460220336914
133.0 397.388885498047
134.0 375.682098388672
135.0 5969.3369140625
136.0 3303.4013671875
137.0 269.360412597656
146.0 44.8358497619629
147.0 340.97509765625
148.0 399.985473632813
149.0 689.200317382813
149.9 25.0099029541016
161.0 170.371017456055
162.0 254.806076049805
163.0 263.583526611328
176.0 170.505798339844
177.0 228.167236328125
178.0 470.780120849609
190.9 62.4978179931641
191.0 242.338973999023
192.0 76.4688949584961
192.1 152.838272094727
193.0 172.034103393555
208.0 120.029579162598
208.9 17.2037982940674
