#"+EI Scan (rt: 3.060-3.107 min, 9 scans) MIX6-9.D  Subtract "
#Point,X(Thompsons),Y(Counts)
41.0 1396.64184570313
42.0 14365.19921875
43.0 1853.01989746094
44.1 44341.37109375
45.0 1270.31494140625
48.9 17.8362560272217
50.0 889.405944824219
51.0 1557.51721191406
52.0 383.288208007813
53.0 1648.70544433594
54.0 450.543090820313
55.0 1124.05407714844
56.0 4949.60400390625
57.0 900.021301269531
58.0 155.762512207031
60.0 73.7226028442383
61.0 669.180603027344
62.0 3307.59448242188
63.0 9870.6728515625
64.0 1527.71142578125
65.0 11761.9072265625
66.0 924.047119140625
66.9 44.7971801757813
67.0 86.945182800293
68.0 366.145629882813
68.1 29.3744201660156
69.0 279.559356689453
70.1 12304.8857421875
71.1 1680.50012207031
72.1 180577.671875
73.1 8953.6826171875
74.0 868.828552246094
74.8 25.3951320648193
75.0 302.139709472656
76.0 334.167510986328
77.0 908.064086914063
78.0 288.690063476563
79.0 613.62060546875
86.9 16.895637512207
87.8 17.9878273010254
89.0 505.634826660156
90.0 288.886932373047
91.0 5356.4677734375
92.0 948.127380371094
93.0 457.798187255859
94.1 35.1076889038086
94.3 25.9190902709961
94.6 17.4038562774658
95.0 92.3549270629883
95.8 17.2885208129883
95.9 2.31143569946289
102.0 142.305252075195
103.0 366.13427734375
104.0 168.039291381836
105.0 239.084411621094
106.0 42.8322563171387
116.9 19.1827774047852
117.0 116.042938232422
117.9 282.132354736328
119.0 1595.06762695313
120.0 1034.64416503906
121.0 9779.166015625
122.0 1515.99938964844
122.8 31.9259243011475
123.0 144.872573852539
130.0 53.3250579833984
131.0 115.644287109375
131.9 22.7526016235352
132.9 135.580871582031
134.0 103.964263916016
135.0 2239.5029296875
136.0 280.994720458984
144.9 23.888521194458
145.0 23.9749317169189
146.0 379.186004638672
146.9 21.2581272125244
147.0 509.306762695313
148.0 676.610534667969
149.0 12976.876953125
150.0 1461.05200195313
151.0 150.148590087891
160.0 69.5621795654297
161.0 40.8087615966797
162.0 205.85693359375
163.0 86.5851974487305
174.0 59.3618507385254
174.9 19.5882949829102
175.0 21.3617038726807
176.0 670.205932617188
177.0 454.551208496094
178.0 1506.88403320313
179.0 158.501571655273
188.0 98.8453674316406
190.0 314.250915527344
191.0 96.0872802734375
192.0 35.2005081176758
202.9 21.0610618591309
203.0 99.2614593505859
204.0 54.6932144165039
205.1 43.9828338623047
206.0 139.03564453125
207.0 19.0471801757813
208.0 3.18408203125
219.0 263.901062011719
220.0 48.3879127502441
