#"+EI Scan (rt: 3.060-3.107 min, 9 scans) MIX6-10.D  Subtract "
#Point,X(Thompsons),Y(Counts)
41.0 1277.57995605469
42.0 14224.2294921875
43.0 1878.40551757813
44.1 44182.21484375
45.0 1289.5869140625
48.9 20.2507858276367
50.0 923.786376953125
51.0 1530.27978515625
52.0 371.175048828125
53.0 1643.43115234375
54.0 499.31005859375
55.0 1199.23779296875
56.0 5016.482421875
57.0 866.449157714844
58.0 165.314147949219
59.9 54.3756790161133
60.0 18.2081604003906
61.0 680.798095703125
62.0 3300.57983398438
63.0 9867.4931640625
64.0 1431.45629882813
65.0 11676.5078125
66.0 908.860473632813
67.0 129.447128295898
68.0 427.328094482422
69.0 204.190673828125
69.1 47.3775062561035
70.1 11939.0830078125
71.1 1677.89367675781
72.1 181265.4375
73.1 9051.9970703125
74.0 847.572937011719
74.9 61.4307098388672
75.0 301.046417236328
76.0 339.694244384766
77.0 894.882507324219
78.0 272.291015625
79.0 604.256958007813
79.9 42.2890090942383
87.0 20.9373321533203
88.0 18.0058307647705
89.0 524.527893066406
90.0 310.990264892578
91.0 5432.42578125
92.0 980.826416015625
93.0 497.601623535156
93.9 22.2361068725586
94.1 43.4198417663574
94.8 52.4681854248047
94.9 59.2466773986816
95.9 28.1891231536865
101.9 131.991806030273
102.1 34.1127052307129
103.0 266.680389404297
103.0 69.4949722290039
104.0 161.197631835938
105.0 250.42366027832
117.0 135.569473266602
118.0 272.292602539063
119.0 1570.47961425781
120.0 1077.07995605469
121.0 9999.25390625
122.0 1529.61462402344
123.0 161.048645019531
129.9 40.6903800964355
131.0 70.5971832275391
132.0 70.98779296875
133.0 147.809173583984
133.9 84.6371231079102
134.0 21.0416355133057
135.0 2265.181640625
136.0 274.710083007813
145.0 62.0719528198242
146.0 394.813720703125
147.0 511.449859619141
148.0 706.814453125
149.0 12929.185546875
150.0 1523.07702636719
151.0 175.402359008789
160.0 95.5522994995117
161.0 72.4105911254883
162.0 161.826797485352
163.0 73.5952835083008
173.9 36.3020210266113
175.0 18.3915901184082
176.0 664.656677246094
177.0 463.08056640625
178.0 1426.28881835938
179.0 141.223693847656
188.0 112.442718505859
190.0 290.965270996094
191.0 56.8492736816406
202.9 21.2541942596436
203.1 71.6885986328125
204.0 64.2351226806641
205.0 42.1297225952148
206.1 119.410614013672
208.0 54.5934829711914
219.0 259.593017578125
220.1 18.3583431243896
