#"+EI Scan (rt: 5.065-5.129 min, 12 scans) MIX6-2.D  Subtract "
#Point,X(Thompsons),Y(Counts)
41.0 5936.15234375
42.0 1893.31005859375
43.0 2351.05590820313
44.0 2371.73950195313
44.9 13.4200172424316
50.0 317.897094726563
51.0 665.258483886719
52.0 190.170776367188
53.0 1028.11047363281
54.0 584.365661621094
55.0 4423.1220703125
56.0 2659.3525390625
57.0 4479.80322265625
58.0 431.637939453125
61.0 110.161781311035
61.9 17.6259326934814
62.0 909.322082519531
63.0 3744.35766601563
64.0 657.097229003906
65.0 6921.52587890625
66.0 522.697937011719
67.0 273.778656005859
68.0 711.637512207031
69.0 408.711700439453
70.0 5823.43017578125
71.1 595.521484375
72.1 42759.703125
73.1 2116.65771484375
73.9 13.0439682006836
74.0 195.095458984375
74.9 119.684722900391
75.9 14.5984497070313
76.0 207.701156616211
77.0 782.162292480469
78.0 176.777328491211
79.0 382.388214111328
80.0 104.597778320313
81.0 167.69677734375
82.0 373.504119873047
82.9 38.545654296875
83.0 179.900314331055
84.0 1323.30725097656
85.0 169.455154418945
89.0 284.099792480469
90.0 125.064117431641
91.0 2434.39013671875
92.0 469.825103759766
93.0 769.227783203125
93.9 19.1157073974609
94.1 48.993335723877
94.3 80.4214706420898
94.8 53.9831237792969
95.0 282.527221679688
96.0 217.655380249023
96.1 30.8789730072021
98.1 2060.5908203125
99.0 684.933837890625
100.0 81.0322875976563
101.8 70.5233688354492
102.0 45.6762580871582
102.2 19.4320487976074
102.9 82.6279525756836
103.0 265.484619140625
104.0 163.204711914063
105.0 323.74072265625
106.0 28.3440074920654
107.0 13.4320487976074
112.1 637.413452148438
113.0 41.5226249694824
113.1 15.7414293289185
115.0 250.242660522461
115.8 18.0134944915771
116.0 30.5218906402588
117.0 240.866394042969
118.0 179.947021484375
119.0 845.039855957031
120.0 712.833740234375
121.0 7025.80615234375
122.0 959.474914550781
123.0 372.615386962891
124.0 468.601043701172
126.1 2836.2373046875
127.0 26.5661315917969
127.1 707.189147949219
128.1 131055.96875
129.1 12399.74609375
130.1 566.368347167969
131.0 270.872497558594
132.0 210.428756713867
133.0 231.900924682617
133.9 81.9092483520508
135.0 1709.072265625
136.0 210.129943847656
145.0 142.756530761719
146.0 286.004943847656
147.0 589.059326171875
148.0 1566.81701660156
149.0 14891.48828125
150.0 3144.451171875
151.0 347.144409179688
158.9 14.1773824691772
159.1 15.3911399841309
160.0 70.9420928955078
160.9 93.6128311157227
161.0 136.434707641602
162.0 108.412086486816
163.0 502.837768554688
164.0 359.467681884766
171.9 12.7904205322266
174.0 809.601806640625
175.0 355.833892822266
176.0 227.315719604492
177.0 434.771881103516
178.0 480.42626953125
190.0 199.089492797852
190.9 70.2990493774414
193.0 12.9367065429688
204.0 339.264099121094
205.0 140.044662475586
206.1 1879.404296875
207.0 260.385559082031
208.0 31.6545944213867
208.1 14.0350532531738
230.1 72.3854293823242
234.0 21.9088592529297
234.1 410.662506103516
235.1 29.3018951416016
248.0 13.9432744979858
248.1 305.913330078125
259.0 29.8670425415039
259.1 27.1991882324219
276.1 12.9885177612305
