#"+EI Scan (rt: 1.958-2.017 min, 11 scans) MIX7-10.D  Subtract "
#Point,X(Thompsons),Y(Counts)
41.0 1004.85235595703
42.0 8013.28271484375
43.0 973.426147460938
44.1 7360.05810546875
45.0 405.741485595703
49.0 77.2592163085938
50.0 2515.2744140625
51.0 1333.76538085938
52.0 206.600433349609
52.9 16.8159465789795
53.0 268.501434326172
54.0 734.238037109375
55.0 1627.39086914063
56.0 8266.9990234375
57.0 3126.16284179688
58.0 447.727844238281
59.1 16.4977531433105
60.9 219.873672485352
62.0 178.361755371094
63.0 471.907745361328
64.0 15.6347751617432
64.9 104.535499572754
65.1 13.9123106002808
68.0 65.7404937744141
69.1 47.2957534790039
70.1 5095.6171875
71.1 1764.22375488281
72.1 125458.6328125
73.1 6415.82177734375
74.0 1497.404296875
75.0 5988.3232421875
76.0 1407.45739746094
77.0 1276.16552734375
78.0 330.151550292969
79.0 204.745697021484
83.9 167.455215454102
85.0 793.481384277344
85.9 136.542266845703
86.9 343.737274169922
89.0 379.522918701172
90.0 49.6903800964355
91.0 185.239837646484
95.8 19.945894241333
95.9 31.6741638183594
96.9 30.500825881958
98.0 33.5008697509766
98.9 71.3124160766602
101.0 180.657653808594
102.0 90.4424362182617
102.0 165.802444458008
103.0 842.389831542969
104.0 298.985168457031
105.0 640.801391601563
106.0 64.6469039916992
109.9 21.4260215759277
110.0 116.926910400391
111.0 7236.6845703125
112.0 746.711730957031
113.0 2417.5576171875
113.9 272.422882080078
115.0 410.150115966797
116.0 109.804977416992
117.0 132.782287597656
117.9 14.1764526367188
119.0 107.988151550293
120.0 98.5791549682617
122.9 15.1509094238281
125.0 694.115051269531
125.9 34.7723007202148
127.0 236.167922973633
127.9 42.4835777282715
130.0 93.914192199707
131.0 297.745788574219
132.0 202.073974609375
133.0 625.793090820313
134.0 55.5982933044434
136.9 62.417049407959
137.9 14.2982625961304
139.0 3809.14233398438
139.9 310.304473876953
141.0 1244.92150878906
142.0 73.9617385864258
144.0 86.1722946166992
145.0 333.922241210938
146.0 235.681930541992
146.9 13.8960819244385
147.0 15.9964590072632
148.9 13.6654396057129
149.9 15.8581228256226
150.9 14.8755226135254
151.9 119.633796691895
159.0 31.3683300018311
160.0 237.377395629883
160.1 285.983154296875
161.0 181.192977905273
164.9 16.3743724822998
166.0 178.57698059082
166.9 124.207710266113
168.0 371.582550048828
169.0 39.5063743591309
169.9 61.3122787475586
174.0 784.825134277344
175.0 165.404647827148
180.0 179.856216430664
180.9 14.9264860153198
182.0 88.7411956787109
189.0 95.3183898925781
190.9 125.304069519043
193.9 65.0449676513672
194.0 128.194076538086
195.0 14.3616666793823
196.0 204.447555541992
207.0 36.197509765625
208.0 126.138656616211
209.0 129.643249511719
210.0 53.4386138916016
