#"+EI Scan (rt: 3.083-3.130 min, 9 scans) MIX7-1.D  Subtract "
#Point,X(Thompsons),Y(Counts)
41.0 4209.58154296875
42.0 5123.3740234375
43.0 1777.25207519531
44.0 247.959167480469
50.0 845.902587890625
51.0 3302.44897460938
52.0 460.404174804688
53.0 897.530151367188
54.0 2636.2236328125
55.0 6297.43505859375
56.0 2378.91064453125
57.0 724.037292480469
58.0 17.9850082397461
58.1 17.6273803710938
62.9 229.337051391602
65.0 370.735626220703
65.1 20.6640720367432
66.0 59.8024444580078
67.0 538.110046386719
68.0 1752.48645019531
69.1 5599.36328125
70.0 3081.85986328125
71.0 375.247955322266
72.0 489.148162841797
73.0 53.1326713562012
74.0 156.028625488281
75.0 198.012741088867
76.0 462.403961181641
77.0 10032.9931640625
78.0 1234.59423828125
79.0 405.869293212891
80.0 545.571044921875
80.9 19.2104644775391
81.0 320.970855712891
82.0 860.427978515625
83.0 364.299865722656
84.1 6095.37890625
85.0 437.455505371094
89.0 233.387023925781
90.0 68.0870056152344
91.0 1593.900390625
92.0 173.85514831543
93.0 86.0495529174805
94.0 339.602233886719
94.0 382.412139892578
95.0 473.967987060547
96.1 7151.1630859375
97.1 14649.44921875
98.1 2718.90087890625
98.9 17.9595737457275
99.1 108.05940246582
102.0 185.934066772461
103.0 400.978118896484
103.9 17.8042850494385
104.0 271.609100341797
105.0 7595.70849609375
106.0 742.525024414063
107.0 38.6994476318359
108.0 143.733505249023
109.0 18.5807857513428
110.1 1563.83142089844
111.0 188.186828613281
114.9 42.0276031494141
115.0 741.294189453125
116.0 268.626220703125
117.0 384.571166992188
117.9 142.257431030273
118.9 56.4281730651855
120.0 469.779724121094
122.0 517.070068359375
123.0 37.1683349609375
124.1 5234.8076171875
125.1 953.697998046875
126.1 125029.078125
127.1 11795.388671875
128.0 98.8363037109375
128.1 757.445678710938
129.0 255.530242919922
130.0 213.318115234375
131.0 340.672576904297
131.9 25.7974109649658
132.0 104.022636413574
133.0 634.557373046875
134.0 342.864135742188
141.0 58.893913269043
142.9 17.9770736694336
143.0 66.8661804199219
144.0 79.7432708740234
144.9 18.6619682312012
145.0 126.098579406738
146.0 144.755828857422
158.0 67.5074157714844
159.0 138.839141845703
160.1 857.437255859375
161.0 82.3843460083008
161.1 23.0428695678711
169.9 67.3111724853516
170.1 21.7681655883789
172.0 36.0391502380371
173.1 20.5274925231934
186.0 211.236099243164
188.1 816.886108398438
189.1 547.456176757813
200.0 115.895721435547
208.0 41.7490081787109
209.0 18.3094882965088
229.1 129.295227050781
230.1 77.7924652099609
