#"+EI Scan (rt: 3.089-3.130 min, 8 scans) MIX7-5.D  Subtract "
#Point,X(Thompsons),Y(Counts)
41.0 4702.7705078125
42.0 5705.01220703125
43.0 2096.46069335938
44.0 367.927490234375
50.0 930.701721191406
51.0 3720.98120117188
52.0 521.268859863281
53.0 1041.84387207031
54.0 2915.97827148438
55.0 7190.72216796875
56.0 2634.12573242188
57.0 875.555603027344
58.0 20.3063793182373
63.0 255.263610839844
63.9 21.6536827087402
65.0 447.958068847656
65.9 116.239929199219
67.0 542.339111328125
68.0 1863.76098632813
69.1 6393.7822265625
70.1 3430.796875
71.0 427.624725341797
72.0 526.435974121094
73.0 72.8737411499023
73.9 169.858551025391
74.1 30.3859939575195
75.0 229.759155273438
76.0 509.936553955078
77.0 11277.67578125
78.0 1374.66259765625
79.0 509.203277587891
80.0 586.6875
81.0 373.715728759766
82.0 975.984741210938
82.9 44.8920669555664
83.0 384.865112304688
84.1 6881.3447265625
85.0 498.070648193359
89.0 307.941619873047
90.0 109.02360534668
91.0 1684.0732421875
92.0 208.204116821289
93.0 146.53271484375
94.0 823.992065429688
95.0 546.964538574219
96.1 8159.736328125
97.1 17106.3203125
98.1 3135.72729492188
99.0 21.4249820709229
99.1 124.045310974121
101.9 245.149185180664
103.0 462.940002441406
103.9 58.7009963989258
104.0 306.128112792969
105.0 8405.73828125
106.0 806.8466796875
106.9 21.0494766235352
108.0 191.89518737793
108.9 19.7372074127197
109.1 38.7266273498535
110.1 1745.66101074219
111.0 169.96614074707
115.0 853.654907226563
116.0 221.844604492188
116.1 54.4435043334961
117.0 420.912811279297
118.0 165.054138183594
118.9 21.9502487182617
120.0 524.742370605469
122.0 574.10400390625
123.1 58.3305206298828
124.1 5850.8388671875
125.1 1068.67846679688
126.1 141464.28125
127.1 13282.818359375
128.1 950.73974609375
129.0 280.956970214844
130.0 230.109191894531
131.0 422.538482666016
132.0 178.462341308594
133.0 743.074462890625
134.0 367.308349609375
134.1 28.1303958892822
141.0 77.1666488647461
143.0 99.3728637695313
144.0 115.529037475586
145.0 167.480773925781
145.9 19.6302585601807
146.0 136.11311340332
158.0 68.605224609375
159.0 175.438705444336
160.1 1016.29180908203
161.0 124.008201599121
170.0 93.9178466796875
172.1 20.012716293335
173.0 19.9799060821533
186.0 210.475067138672
188.1 913.233459472656
189.1 715.422180175781
190.0 19.0315380096436
200.0 107.205123901367
207.9 98.5543670654297
229.1 128.368133544922
230.1 78.5140151977539
