#"+EI Scan (rt: 3.725-3.771 min, 9 scans) MIX7-7.D  Subtract "
#Point,X(Thompsons),Y(Counts)
41.0 2347.98803710938
42.0 1722.84924316406
43.0 896.219604492188
44.0 138.866577148438
50.0 287.224853515625
51.0 1162.82739257813
52.0 115.456405639648
53.0 339.763549804688
54.0 955.479187011719
55.0 1838.82727050781
56.0 986.908081054688
57.0 279.92041015625
63.0 35.4369659423828
65.0 105.041290283203
67.0 282.925476074219
68.0 704.499145507813
69.0 1884.87524414063
70.0 1053.31884765625
71.0 152.666687011719
72.0 39.4956245422363
75.0 18.4111061096191
75.8 23.1677513122559
76.0 144.298110961914
77.0 3979.56860351563
78.0 475.940093994141
79.0 133.9638671875
80.0 254.351257324219
81.0 194.386169433594
82.0 333.557525634766
83.0 171.983428955078
84.1 2191.8603515625
85.0 57.0896949768066
85.1 61.9839019775391
88.9 57.8919067382813
91.0 680.9140625
92.0 18.4306774139404
94.0 302.891662597656
95.0 174.6552734375
96.0 2122.6025390625
97.1 1687.62915039063
98.1 980.540588378906
99.1 19.1733360290527
103.0 130.109405517578
103.9 23.0289573669434
104.0 62.9523658752441
105.0 2944.4521484375
106.0 309.204833984375
108.0 91.5187454223633
110.0 958.102294921875
111.0 91.4185638427734
112.1 17.4265422821045
115.0 273.756469726563
116.0 58.1947555541992
117.0 104.205558776855
120.0 441.081756591797
121.9 17.0673389434814
122.0 30.498498916626
128.0 72.4557495117188
129.0 42.4981079101563
129.9 58.8082084655762
131.0 129.946365356445
132.0 21.9048099517822
132.9 115.674896240234
133.0 100.819313049316
136.1 311.063293457031
138.1 1773.34716796875
139.1 158.910568237305
139.2 198.711776733398
140.1 58712.78515625
141.1 6109.595703125
142.1 282.871826171875
145.0 17.1960716247559
160.1 457.412384033203
161.0 16.9873046875
186.0 113.372177124023
188.0 410.824096679688
189.1 20.7845668792725
191.0 17.0391902923584
200.0 65.9165191650391
207.0 45.1148071289063
208.0 29.6223640441895
214.1 38.8891944885254
243.0 17.0274467468262
