#"+EI Scan (rt: 5.211-5.240 min, 6 scans) MIX7-6.D  Subtract "
#Point,X(Thompsons),Y(Counts)
41.0 10179.498046875
42.0 3660.29663085938
43.1 3061.22094726563
44.0 1665.11669921875
50.0 433.707489013672
51.0 960.873840332031
51.9 32.3141403198242
52.0 255.18098449707
53.0 1331.31274414063
54.0 785.026611328125
55.0 5944.36181640625
56.1 5953.90380859375
57.1 15002.2939453125
58.0 873.692321777344
60.9 178.056930541992
62.0 1252.13366699219
63.0 5295.3349609375
64.0 933.03076171875
65.0 9347.2021484375
66.0 658.733337402344
67.0 419.299896240234
68.0 988.050720214844
69.0 456.989135742188
70.0 4778.67919921875
71.0 582.655212402344
72.1 37411.91015625
73.0 1950.50415039063
74.0 239.826858520508
75.0 178.901168823242
75.9 306.771636962891
77.0 1155.06848144531
77.9 118.949615478516
78.0 226.593154907227
79.0 559.905456542969
80.0 190.839157104492
81.0 183.917068481445
82.0 492.985260009766
83.0 313.041961669922
84.1 3261.38012695313
85.1 423.81201171875
86.1 633.518615722656
87.0 26.6539173126221
88.0 25.4217433929443
89.0 386.52734375
90.0 186.29020690918
91.0 3060.38696289063
92.0 679.832763671875
93.0 808.143310546875
94.1 85.1648559570313
94.4 63.4366760253906
95.2 65.2891006469727
95.9 965.344970703125
96.0 87.0583953857422
96.9 27.6062412261963
97.0 28.5301208496094
98.0 457.425079345703
99.0 634.767456054688
100.0 31.8419322967529
102.0 139.259475708008
103.0 363.186279296875
104.0 292.193145751953
105.0 520.175231933594
106.0 112.467094421387
107.0 63.8494911193848
112.1 1027.36352539063
113.0 85.6165771484375
113.1 25.4724426269531
114.9 52.2790184020996
115.0 275.914428710938
116.0 134.051376342773
117.0 690.134826660156
118.0 222.476379394531
119.0 1081.09924316406
120.0 862.250244140625
121.0 9756.1865234375
122.0 1359.71252441406
123.0 317.092071533203
124.0 134.199310302734
126.1 4154.66845703125
127.2 1112.31591796875
128.1 213959.171875
129.1 20006.025390625
130.1 945.583557128906
131.0 337.725799560547
132.0 294.598114013672
132.9 307.928375244141
134.0 178.610229492188
135.0 9451.484375
136.0 928.937927246094
136.9 25.4687576293945
137.0 25.3101291656494
145.0 225.612487792969
146.0 310.441436767578
147.0 827.703186035156
148.0 1418.95361328125
149.0 17109.455078125
150.0 2687.19018554688
151.0 313.023956298828
159.0 92.6362915039063
160.0 171.794189453125
161.0 256.289642333984
162.0 386.197174072266
163.0 678.114501953125
164.0 593.029968261719
174.0 636.258911132813
175.0 457.275909423828
176.0 141.461654663086
176.1 44.7439155578613
177.0 784.501647949219
177.9 29.8732433319092
178.0 427.414642333984
190.0 241.364974975586
191.0 168.412399291992
192.0 170.682434082031
192.9 29.5485229492188
204.0 259.488159179688
205.0 171.797302246094
206.1 2827.65844726563
207.0 409.426391601563
208.0 56.2551422119141
209.0 0.643653869628906
234.0 60.233814239502
234.1 804.256591796875
235.0 98.8864440917969
259.1 55.5368614196777
262.1 96.5983352661133
