#"+EI Scan (rt: 1.696-1.743 min, 9 scans) MIX1-3.D  Subtract "
#Point,X(Thompsons),Y(Counts)
40.0 399.651611328125
41.0 4144.9189453125
42.0 11202.1982421875
43.0 6290.2861328125
44.0 634.701354980469
44.9 85.9075546264648
45.0 116.2890625
45.5 46.3732452392578
48.9 34.8288688659668
50.0 2270.24047851563
51.0 3788.44140625
52.0 1234.50830078125
53.0 862.039123535156
54.0 1048.41577148438
55.0 1961.62878417969
56.0 30604.5
57.1 6745.6923828125
58.1 346526.8125
59.1 13043.4072265625
60.0 167.764907836914
61.0 337.340454101563
62.0 1875.62756347656
63.0 6205.42236328125
64.0 1803.49426269531
65.0 19144.33203125
66.0 1206.26672363281
67.0 78.9924850463867
70.0 36.2861976623535
72.9 93.9990997314453
73.0 41.5813140869141
74.0 669.843017578125
75.0 714.460021972656
76.0 593.945068359375
77.0 1909.39855957031
78.0 618.161010742188
79.0 385.392944335938
79.8 40.5274314880371
79.9 55.5510101318359
80.1 32.049243927002
84.0 36.9090614318848
85.0 139.214752197266
86.0 458.873596191406
87.0 446.017608642578
88.0 167.59733581543
89.0 6662.05859375
90.0 2801.37329101563
91.0 26843.58984375
92.0 2919.91967773438
93.0 411.742034912109
96.0 44.2049407958984
100.9 19.0069561004639
102.0 315.758819580078
103.0 834.086669921875
104.0 481.971466064453
105.0 2086.24658203125
106.0 229.29296875
115.0 1452.98864746094
116.0 442.895263671875
117.0 1045.86889648438
118.0 787.953308105469
119.0 14163.5546875
120.0 1467.26770019531
120.9 134.762481689453
121.0 41.784595489502
127.0 118.922943115234
128.0 372.521575927734
129.0 186.50944519043
130.0 373.439025878906
130.8 22.7077827453613
131.0 514.900573730469
132.0 519.099060058594
133.0 1080.13623046875
134.0 1451.13061523438
134.9 58.7589797973633
135.0 93.6841278076172
143.0 19.8732395172119
144.0 488.011657714844
145.0 189.157043457031
146.0 988.388427734375
147.0 1186.17761230469
148.0 769.153991699219
149.0 180.017944335938
158.0 211.341690063477
159.0 126.263397216797
160.0 539.970764160156
160.9 31.3110866546631
161.0 580.159301757813
162.1 1387.32727050781
163.0 127.852203369141
172.9 82.3339309692383
174.0 46.3097534179688
174.0 70.142219543457
175.0 103.217979431152
176.1 169.917373657227
177.0 200.383361816406
178.0 18.3174610137939
207.9 26.8294219970703
208.9 0.719566345214844
