#"+EI Scan (rt: 1.988-2.040 min, 10 scans) MIX8-2.D  Subtract "
#Point,X(Thompsons),Y(Counts)
41.0 602.289306640625
42.0 2183.63208007813
43.0 1370.99291992188
44.0 179.403198242188
44.9 16.042501449585
50.0 656.471313476563
51.0 1236.57067871094
52.0 301.708343505859
53.0 404.789184570313
54.0 224.561676025391
55.0 523.42236328125
56.0 7027.6533203125
57.0 1568.68627929688
58.1 78683.1484375
59.1 2948.15185546875
61.9 97.6017456054688
62.0 136.71875
63.0 953.593383789063
64.0 235.670440673828
65.0 731.921020507813
65.9 15.7996883392334
66.0 39.7556076049805
72.9 16.5836124420166
74.0 221.858673095703
75.0 222.253234863281
76.0 371.651184082031
77.0 3142.40234375
78.0 900.651977539063
79.0 2246.11328125
80.0 136.99528503418
80.6 34.9294738769531
83.9 16.4864978790283
84.1 17.5668678283691
85.9 15.9725780487061
86.1 60.7668342590332
87.0 15.6588106155396
89.0 1391.10131835938
90.0 1136.5234375
91.0 1075.92822265625
92.0 60.7445297241211
102.0 317.266326904297
103.0 1779.84411621094
104.0 565.874877929688
105.0 1420.89233398438
105.9 19.677806854248
106.0 186.592315673828
115.0 361.856994628906
116.0 76.2565002441406
117.0 246.219650268555
118.0 155.207290649414
119.0 441.163208007813
120.9 248.244918823242
122.0 33.340217590332
126.9 15.175877571106
128.0 113.999313354492
129.0 21.7531547546387
130.0 50.7666091918945
131.0 165.651458740234
132.0 111.030311584473
133.0 3028.56274414063
134.0 409.02294921875
138.9 15.4459171295166
144.0 63.6820793151855
146.0 76.8466567993164
147.0 233.58122253418
148.0 458.690002441406
149.0 868.339538574219
150.0 64.5888519287109
158.1 15.6974515914917
160.0 265.850463867188
161.0 91.2182006835938
161.9 23.700044631958
162.1 51.560920715332
172.0 67.7427062988281
174.1 15.3107738494873
175.0 16.7400398254395
176.0 148.729278564453
190.9 116.06591796875
207.0 30.3565673828125
208.0 14.5770568847656
