#"+EI Scan (rt: 1.988-2.046 min, 11 scans) MIX8-9.D  Subtract "
#Point,X(Thompsons),Y(Counts)
40.1 39.492546081543
41.0 566.822998046875
42.0 1982.48645019531
43.0 1236.59594726563
44.0 100.089416503906
50.0 600.672790527344
51.0 1168.08703613281
51.9 193.679885864258
52.0 81.9613418579102
53.0 361.238647460938
54.0 261.832122802734
55.0 512.084350585938
56.0 7658.626953125
57.0 1521.90515136719
58.1 72403.1328125
59.1 2765.45947265625
62.0 212.422515869141
63.0 835.85791015625
64.0 199.016891479492
65.0 659.259704589844
66.0 30.0753784179688
73.0 52.5226364135742
73.9 191.315185546875
75.0 195.041625976563
76.0 303.221405029297
77.0 2950.67431640625
78.0 837.988891601563
79.0 2056.16357421875
80.0 117.867897033691
80.8 19.0763740539551
84.0 30.7338542938232
86.0 41.2884140014648
86.1 49.2834358215332
89.0 1306.00207519531
90.0 1018.24395751953
91.0 1022.98162841797
92.0 54.1599578857422
96.1 22.7606391906738
101.0 15.9817562103271
102.0 316.265472412109
103.0 1726.43542480469
103.9 86.6354904174805
104.0 459.047180175781
105.0 1272.04077148438
106.0 176.410354614258
114.9 16.6094818115234
115.0 330.205627441406
116.0 69.4569778442383
117.0 232.086975097656
118.0 139.187759399414
119.0 427.146545410156
121.0 188.220901489258
122.0 14.4017696380615
128.0 95.6484146118164
129.0 30.2815608978271
130.0 52.1025161743164
131.0 147.777694702148
132.0 130.915390014648
133.0 2774.09106445313
134.0 379.562042236328
135.0 47.024356842041
144.0 20.5205707550049
146.0 79.5089950561523
146.9 48.2439842224121
147.0 170.698348999023
148.0 421.908996582031
149.0 746.352478027344
149.9 61.2567253112793
160.0 262.289306640625
161.0 66.0976791381836
162.0 39.8221092224121
162.1 23.5423469543457
172.0 46.0589866638184
176.0 110.053466796875
191.0 91.6745910644531
207.0 53.4769287109375
