#"+EI Scan (rt: 1.988-2.046 min, 11 scans) MIX8-10.D  Subtract "
#Point,X(Thompsons),Y(Counts)
41.0 491.585998535156
42.0 2014.75402832031
43.0 1229.59887695313
44.0 128.8662109375
50.0 575.342712402344
51.0 1214.15234375
52.0 294.086303710938
53.0 433.260437011719
54.0 229.555801391602
55.0 553.377014160156
56.0 7533.82421875
57.0 1529.28479003906
58.1 74046.453125
59.1 2790.4169921875
62.0 199.037155151367
63.0 883.990783691406
64.0 236.869247436523
65.0 630.305053710938
65.9 41.0310935974121
66.0 30.8593635559082
69.0 13.8149385452271
72.9 26.5058097839355
74.0 177.455200195313
75.0 320.627136230469
76.0 342.054779052734
77.0 3072.25927734375
78.0 849.424560546875
79.0 2065.56616210938
80.0 119.094795227051
80.1 23.6370658874512
83.9 14.7626314163208
84.0 32.5055885314941
86.0 40.0675392150879
86.9 17.9433841705322
89.0 1339.30712890625
90.0 1083.90026855469
91.0 1047.39575195313
92.0 53.4585304260254
96.0 79.6671829223633
102.0 302.442291259766
103.0 1723
103.9 102.239891052246
104.0 440.497680664063
105.0 1369.92895507813
106.0 178.267929077148
115.0 357.075561523438
116.0 68.1265106201172
117.0 246.611557006836
118.0 132.182876586914
119.0 430.847564697266
121.0 191.636016845703
121.9 18.4123229980469
127.0 15.0532255172729
127.9 35.6469078063965
128.0 74.0030670166016
129.0 15.6249876022339
130.0 34.6607933044434
131.0 160.127456665039
132.0 113.14966583252
133.0 2945.5283203125
134.0 361.182098388672
134.9 13.7608852386475
135.1 18.8722763061523
138.8 14.6135282516479
144.0 66.7585678100586
146.0 78.4241256713867
146.9 63.0344276428223
147.0 128.995300292969
148.0 426.754425048828
149.0 751.659484863281
149.9 41.3528099060059
160.0 301.930877685547
160.9 18.8654766082764
161.0 83.1006164550781
162.0 70.9978103637695
175.1 13.8277292251587
176.1 143.52766418457
190.9 48.8106384277344
192.0 28.3413772583008
207.0 23.3568115234375
208.0 19.189453125
208.9 46.0487632751465
