#"+EI Scan (rt: 5.514-5.549 min, 7 scans) MIX8-2.D  Subtract "
#Point,X(Thompsons),Y(Counts)
41.0 11966.390625
42.0 3201.39794921875
43.1 12582.2060546875
44.0 5534.83251953125
45.0 154.042266845703
50.0 382.547912597656
51.0 973.982971191406
52.0 272.202301025391
53.0 1161.79125976563
54.0 998.725219726563
55.0 2165.56787109375
56.0 6958.92431640625
57.0 2040.83459472656
58.0 1044.98889160156
59.1 82.1551055908203
60.0 98.9047317504883
60.9 163.474624633789
61.0 24.2276973724365
62.0 1315.38684082031
63.0 5547.42431640625
64.0 919.819519042969
65.0 10653.841796875
65.9 31.0900840759277
66.0 816.206176757813
67.0 1049.88635253906
68.0 911.598999023438
69.1 5519.7763671875
70.1 4695.77978515625
71.0 322.541290283203
71.1 55.762565612793
72.1 4662.05029296875
73.0 208.707580566406
74.0 178.173965454102
75.0 195.587997436523
76.0 305.540954589844
77.0 1207.37194824219
78.0 356.185852050781
79.0 573.752624511719
80.0 206.018218994141
80.9 208.16340637207
82.0 419.27685546875
83.0 233.242782592773
84.1 4768.93115234375
85.0 1217.62902832031
86.1 9959.3974609375
87.1 663.319763183594
88.0 49.1809005737305
89.0 359.977935791016
89.8 23.8897819519043
90.0 204.496368408203
91.0 3436.90673828125
91.9 25.7185096740723
92.0 680.708679199219
92.9 191.607177734375
93.0 853.421203613281
93.9 33.5550193786621
94.3 103.329063415527
94.4 109.09317779541
95.1 131.871490478516
95.2 323.698028564453
95.8 63.8600578308105
96.0 480.090087890625
97.0 116.425003051758
98.1 2493.88842773438
99.1 262.910491943359
100.1 262.609039306641
101.0 24.8742427825928
101.9 180.040069580078
103.0 396.732574462891
103.0 83.0314254760742
104.0 320.884185791016
105.0 531.566833496094
106.0 105.846305847168
106.9 56.4495582580566
107.0 33.005916595459
110.0 25.0861949920654
112.1 238.946060180664
114.9 317.140655517578
116.0 131.614303588867
117.0 289.941680908203
118.0 211.855453491211
119.0 1167.19702148438
120.0 1021.60992431641
121.0 11114.5146484375
122.0 1471.20471191406
123.0 391.169525146484
124.0 150.942993164063
124.1 59.2628440856934
124.8 23.378475189209
126.1 5752.96533203125
127.2 1350.037109375
128.1 289101.125
129.1 26991.478515625
130.1 1201.48742675781
130.8 22.80592918396
131.0 403.358245849609
132.0 222.186935424805
132.1 67.9039611816406
132.9 293.195404052734
133.9 53.1835403442383
134.0 141.634002685547
135.0 4707.640625
136.0 571.70556640625
137.0 22.1195659637451
141.0 21.6594352722168
144.0 92.4037399291992
144.9 27.3744983673096
145.0 191.497055053711
146.0 247.076751708984
147.0 842.683410644531
148.0 1449.17517089844
149.0 17531.462890625
150.0 2314.69555664063
151.0 272.550689697266
159.0 89.8014984130859
160.0 221.770919799805
161.0 298.383087158203
162.0 414.894683837891
163.0 401.586181640625
164.0 844.166931152344
165.0 49.5667457580566
172.0 25.3503017425537
173.1 23.3594760894775
173.9 58.5752792358398
174.0 173.204391479492
175.0 245.965225219727
176.0 188.686599731445
177.0 642.688293457031
178.0 221.553024291992
188.0 226.081405639648
189.0 150.634399414063
190.0 706.598327636719
190.9 27.6963710784912
191.0 196.971374511719
192.1 3286.90234375
193.0 438.474060058594
203.0 72.8608245849609
204.0 21.7356357574463
216.0 106.844360351563
218.0 222.104461669922
219.0 86.3246917724609
220.1 1586.79138183594
221.1 280.725219726563
230.1 26.5130462646484
231.0 22.4714336395264
248.0 45.4128150939941
259.1 62.8167724609375
281.0 3.08554077148438
