#"+EI Scan (rt: 3.369-3.410 min, 8 scans) DIBUTYLONE-1.D  Subtract "
#Point,X(Thompsons),Y(Counts)
41.0 1761.552734375
42.0 7423.22119140625
43.0 1813.34497070313
44.0 3286.08569335938
45.0 440.990844726563
46.0 22.9862976074219
50.0 450.662414550781
51.0 820.436645507813
51.9 155.802032470703
53.0 762.787109375
54.0 304.423126220703
55.0 945.141845703125
56.0 3947.67797851563
57.0 378.520324707031
58.0 1622.57482910156
61.0 214.652221679688
62.0 1401.37854003906
63.0 4381.423828125
64.0 615.676391601563
65.0 5564.4931640625
66.0 451.560089111328
67.0 85.4055404663086
68.0 695.314819335938
69.0 733.002746582031
70.1 3387.32446289063
71.1 12923.900390625
72.0 830.155639648438
74.0 336.638397216797
75.0 145.2041015625
76.0 207.632995605469
77.0 751.154174804688
78.0 220.59098815918
79.0 425.312561035156
79.9 19.8224353790283
82.0 115.40697479248
84.1 3298.4736328125
85.0 45.5020027160645
85.1 1209.3740234375
86.1 146750.140625
87.1 8763.412109375
88.1 219.265380859375
88.9 96.0927581787109
89.0 167.690353393555
89.9 73.3211364746094
91.0 2079.49731445313
92.0 396.236450195313
92.0 34.7316284179688
93.0 71.2712860107422
94.0 21.6006889343262
101.4 26.8845062255859
101.6 24.0053691864014
101.8 21.2705974578857
102.4 63.4925537109375
102.9 90.4601364135742
103.0 249.774780273438
104.0 209.961898803711
105.0 329.286346435547
106.0 39.9832649230957
115.0 95.0400466918945
116.9 75.0400390625
118.0 112.391792297363
119.0 672.873474121094
120.0 545.946716308594
121.0 4461.7763671875
122.0 528.410217285156
131.0 129.018768310547
132.0 122.782249450684
133.0 131.559829711914
134.0 21.6766490936279
135.0 1422.52526855469
136.0 120.574783325195
145.0 63.5260391235352
146.0 80.3710174560547
147.0 547.491333007813
148.0 243.0859375
149.0 6370.27587890625
150.0 592.622009277344
160.0 141.795150756836
161.0 64.3359527587891
162.0 295.631011962891
163.0 95.2868804931641
163.9 40.0190505981445
174.0 21.3975849151611
175.0 222.045700073242
175.1 28.7793006896973
176.0 178.721801757813
177.0 153.874160766602
178.0 816.097106933594
179.0 43.1132507324219
188.0 57.6197090148926
190.0 374.758666992188
191.0 157.102996826172
192.0 205.654022216797
204.0 325.661804199219
205.0 43.6452331542969
206.0 308.778594970703
207.0 61.9314575195313
233.0 60.6778564453125
