#"+EI Scan (rt: 3.363-3.410 min, 9 scans) DIBUTYLONE-4.D  Subtract "
#Point,X(Thompsons),Y(Counts)
40.0 67.4478912353516
41.0 1632.43432617188
42.0 6905.90380859375
43.0 1665.74462890625
44.0 3049.88305664063
45.0 399.197387695313
46.0 20.009744644165
50.0 396.4306640625
51.0 744.953002929688
51.9 148.557098388672
53.0 681.008605957031
54.0 252.14289855957
55.0 881.442260742188
56.0 3615.1806640625
57.0 369.503723144531
58.1 1488.2138671875
61.0 160.190795898438
62.0 1262.62561035156
63.0 4124.630859375
64.0 527.623779296875
64.1 26.2181930541992
65.0 5052.80517578125
66.0 395.208404541016
67.0 91.4603881835938
68.0 598.789428710938
69.0 633.112060546875
70.1 3148.5859375
71.1 11977.7451171875
72.1 795.039428710938
73.1 24.0756454467773
73.9 280.161834716797
74.9 31.3884410858154
75.0 102.402946472168
76.0 188.98747253418
77.0 724.848571777344
78.0 203.214233398438
79.0 356.695373535156
80.1 18.7603302001953
81.0 18.2989253997803
82.0 133.070907592773
84.1 3063.58715820313
85.1 1261.78833007813
86.1 136138.0625
87.1 8244.8544921875
88.0 227.627868652344
89.0 201.435333251953
90.0 77.042839050293
91.0 1966.80773925781
92.0 355.581085205078
92.9 40.2277221679688
94.1 70.6569442749023
101.5 45.9393043518066
101.8 26.0750312805176
102.9 300.654815673828
104.0 167.299758911133
105.0 267.743011474609
106.0 36.8776779174805
115.0 72.52197265625
115.1 20.902099609375
117.0 87.4553375244141
118.0 103.2939453125
119.0 564.409545898438
120.0 508.606109619141
121.0 4077.20092773438
122.0 496.650939941406
130.9 151.639663696289
132.0 125.88631439209
132.9 34.6928176879883
133.0 137.740264892578
133.9 40.7953834533691
135.0 1329.36364746094
136.0 91.2746658325195
145.0 36.3949432373047
146.0 66.6189880371094
147.0 483.090942382813
148.0 211.311462402344
149.0 5872.55078125
150.0 568.545166015625
160.0 128.939666748047
160.9 44.2803115844727
161.0 20.3797435760498
162.0 237.374130249023
163.0 82.6742858886719
164.0 34.4250717163086
174.0 36.3965606689453
175.0 234.127136230469
176.0 164.382263183594
177.0 172.165084838867
178.0 725.651489257813
179.0 39.3784637451172
188.0 58.6476631164551
188.9 16.9782829284668
189.9 26.2979755401611
190.0 332.446014404297
190.9 88.2972259521484
191.0 81.6370162963867
192.0 194.554306030273
204.0 256.647277832031
205.0 25.0417728424072
206.0 322.698822021484
207.0 70.1390380859375
233.0 17.2702655792236
