#"+EI Scan (rt: 1.588-1.664 min, 14 scans) R1M1.D  Subtract "
#Point,X(Thompsons),Y(Counts)
40.1033 329.851928710938
41.0653 8048.0458984375
42.0960 1061.55126953125
43.0745 7670.50439453125
44.0018 879.785888671875
44.8700 41.7098922729492
45.9800 44.5714950561523
46.0800 35.7528457641602
46.7600 30.5276699066162
46.9400 406.972259521484
48.8500 24.7805843353271
48.9667 51.5890884399414
49.9902 319.131042480469
51.0226 1490.11596679688
51.9305 98.4175033569336
52.0740 317.325286865234
53.0353 2359.435546875
53.9763 127.314849853516
54.0931 212.752670288086
55.0664 3693.9921875
56.0000 739.680541992188
57.8300 34.8236618041992
58.0842 280.885375976563
58.1600 157.940841674805
59.0360 7761.19921875
59.9918 375.724975585938
61.1000 32.6596603393555
61.8600 75.7644424438477
61.9582 43.3747940063477
62.0735 68.1842041015625
62.9856 503.367553710938
63.0900 136.2373046875
63.9939 122.852386474609
64.1600 105.613487243652
64.3000 23.4876136779785
65.0064 1317.41455078125
65.0937 969.679016113281
65.8947 132.609313964844
66.0293 719.539978027344
67.0000 1007.89318847656
67.0553 3395.99340820313
68.0650 1741.82897949219
69.0460 1994.06396484375
71.9280 165.373733520508
72.0382 3602.34497070313
73.0349 397.70068359375
73.8300 33.7060852050781
74.1000 329.803741455078
74.8800 88.4377822875977
75.0350 31.4032745361328
75.8500 45.9114799499512
76.0021 51.6736145019531
76.1200 318.875213623047
77.0200 7174.11328125
78.0300 2202.904296875
79.0225 4817.9462890625
79.9689 499.361572265625
80.0517 832.761840820313
81.0059 2792.54296875
81.9880 760.822631835938
83.0401 76.99267578125
83.9000 411.919219970703
86.0616 937.207702636719
86.2500 48.5262832641602
86.8300 75.9887313842773
86.9800 133.113952636719
87.1183 74.1235961914063
87.8281 114.607315063477
87.9800 221.554473876953
88.1000 0.207862854003906
88.9797 979.828002929688
89.9447 430.359069824219
90.1026 208.319274902344
91.0343 10312.150390625
92.0338 1539.22546386719
92.1500 173.599472045898
92.9175 44.1992340087891
93.0544 3877.85668945313
93.9700 326.595367431641
94.0662 779.733642578125
95.0374 1603.66284179688
95.9500 106.776321411133
96.0493 134.260314941406
97.9471 84.6821746826172
98.1700 74.8678131103516
98.9519 182.665832519531
99.1400 225.385360717773
100.0316 172.470977783203
100.1500 312.032989501953
100.3419 202.47053527832
100.8400 155.651260375977
101.0800 320.423065185547
101.5800 23.5354919433594
101.9814 638.730529785156
102.0600 406.604278564453
102.9914 2372.8798828125
104.0323 997.938537597656
105.0484 5762.955078125
105.8500 43.7769813537598
106.0250 1259.20886230469
106.1429 56.6145324707031
107.0602 8133.67919921875
107.9983 598.701232910156
108.0618 1457.91284179688
109.0157 1846.34814453125
110.0900 695.856079101563
110.9400 204.8525390625
112.2300 61.1426811218262
113.0300 423.918823242188
113.1400 48.2478446960449
114.0263 700.780456542969
114.1700 360.691619873047
115.0264 6572.70654296875
115.9199 98.988037109375
116.0286 1584.19287109375
117.0086 2122.56616210938
118.0183 765.636474609375
119.0604 8151.7421875
120.0000 488.454437255859
120.0689 1321.2294921875
121.0328 3483.6826171875
121.1000 1637.60900878906
122.0500 3001.17333984375
122.8800 126.926414489746
123.0338 4194.78173828125
123.9829 1924.50012207031
124.0490 175.065063476563
124.3500 42.8984718322754
124.8500 91.5213165283203
125.0700 595.618957519531
125.9964 113.658996582031
126.1197 234.00505065918
127.0200 2158.66455078125
128.0504 6274.701171875
129.0383 3714.419921875
129.9475 369.826599121094
130.0172 499.212707519531
131.0291 3654.84619140625
131.9705 291.208984375
132.1000 797.725463867188
133.0300 3154.53857421875
134.0602 4242.18603515625
135.0331 1948.37475585938
135.1300 204.754638671875
136.0400 2950.61279296875
137.0053 4016.171875
138.0056 935.908935546875
138.8600 164.664443969727
138.9959 363.354736328125
140.0151 285.136749267578
140.1200 59.6393127441406
140.9963 2516.86206054688
142.0185 1430.02014160156
142.8300 26.0637512207031
143.0518 1243.98522949219
143.9916 854.832397460938
144.0641 564.015563964844
144.8976 172.578552246094
145.0322 2615.4150390625
145.9200 140.785736083984
146.0500 896.681579589844
147.0223 4461.78173828125
147.9937 909.228576660156
148.1070 381.246185302734
148.9600 246.105178833008
149.0359 1826.99633789063
149.8626 18.2413940429688
150.0407 1744.90490722656
150.9100 143.131439208984
151.0066 675.396728515625
151.9300 167.875030517578
152.0427 2117.98046875
152.9200 223.435775756836
153.0181 1949.55358886719
153.8100 33.3907051086426
154.0450 996.634704589844
155.0016 1936.09716796875
155.9862 437.498229980469
156.1000 246.259689331055
157.0400 2670.05834960938
158.0500 1221.65759277344
158.9700 2685.82421875
159.9851 2253.43139648438
160.9999 4150.55078125
162.0130 1155.90014648438
162.9657 838.568603515625
164.0411 504.235534667969
164.1200 161.714202880859
165.0500 4466.32958984375
165.9694 637.708740234375
166.0780 598.505126953125
166.2000 44.6913146972656
167.0500 1680.09045410156
167.8255 2.3087158203125
167.9810 288.786407470703
168.0818 384.593597412109
168.9697 463.446960449219
169.1076 718.877502441406
169.8200 56.1754188537598
169.9714 310.790679931641
170.0600 462.006408691406
171.0105 1352.29638671875
171.8949 2.05241394042969
172.0800 894.698608398438
173.0400 4196.0693359375
174.0501 14657.734375
175.0500 6153.8291015625
176.0000 1116.19226074219
176.0996 543.997680664063
177.0319 1118.67785644531
177.8808 25.9327545166016
178.0391 1397.90771484375
178.1400 364.190032958984
178.9400 247.494430541992
179.0530 952.104614257813
179.8901 3.05775451660156
180.0417 472.0712890625
180.1800 34.5852699279785
181.0203 3144.62939453125
181.8900 141.370330810547
181.9610 334.885406494141
182.0614 595.540893554688
183.0493 2988.01733398438
184.0214 913.303100585938
184.8100 69.5041351318359
184.9947 954.029541015625
185.9233 221.409103393555
186.0450 868.12548828125
187.0405 6370.89306640625
188.0472 3009.33740234375
189.0600 6614.83544921875
189.9866 214.617889404297
190.0600 2931.576171875
190.9863 939.530883789063
191.1100 512.192199707031
191.9212 67.6119537353516
192.0300 420.375
193.0825 16897.181640625
194.0800 2809.63818359375
195.0037 1850.41857910156
195.9300 456.088104248047
196.0232 281.112152099609
197.0200 2149.51879882813
197.7756 2.74735260009766
198.0435 1019.99645996094
199.0035 1979.71484375
199.9889 800.990905761719
200.0800 800.557800292969
201.0304 9798.58203125
201.8755 73.9029998779297
202.0562 2743.83422851563
202.9993 1700.06372070313
203.1000 398.88037109375
203.9022 70.1622543334961
204.0000 222.224166870117
204.1073 223.190811157227
204.9096 269.430603027344
205.0200 289.072692871094
206.0500 320.649932861328
206.1300 212.178573608398
207.0244 1871.66003417969
207.8953 5.60783386230469
208.0314 412.924072265625
208.9942 112.774841308594
209.0870 385.542846679688
209.9300 62.8506317138672
210.0619 372.737762451172
210.9946 1112.39013671875
211.9025 408.773681640625
212.0274 509.505249023438
213.0373 1907.35266113281
213.8800 97.9353866577148
214.0278 1374.265625
214.1300 607.989929199219
214.9855 4270.701171875
215.9900 1114.14379882813
216.9884 1689.80737304688
217.8500 121.756118774414
217.9909 193.70051574707
218.9552 515.4033203125
219.9233 233.99951171875
220.0167 37.1458129882813
220.9500 1101.69567871094
221.6900 10.7602605819702
221.8061 65.2628021240234
222.7600 40.5303764343262
223.0000 492.951812744141
223.7300 17.5933380126953
223.9988 268.599395751953
224.1400 41.9125137329102
224.8800 159.318450927734
225.0040 347.635803222656
225.1011 33.4864349365234
226.0300 364.05517578125
226.1200 121.379776000977
226.2900 42.3060035705566
226.9200 233.860885620117
227.0408 598.492370605469
227.8400 15.0918254852295
227.9800 252.536437988281
228.0910 372.086639404297
228.2200 77.2318344116211
228.9100 125.335731506348
229.1200 2097.33642578125
229.9500 128.846450805664
230.0806 663.117614746094
231.1400 85994.3984375
232.0700 423.839080810547
232.1300 14063.7705078125
233.0131 3936.107421875
233.9903 275.011322021484
234.8800 171.988357543945
235.7300 51.8648872375488
235.9500 34.5726470947266
236.9750 34.2578125
237.9553 351.20654296875
238.9700 433.885986328125
239.6900 35.800537109375
239.9284 199.387969970703
240.1700 53.1653671264648
240.9600 137.663940429688
242.0611 704.722351074219
242.1800 50.8587226867676
243.0700 512.833068847656
243.1295 3795.80932617188
244.0000 362.057067871094
244.0800 752.735778808594
244.2100 86.8018951416016
245.0600 881.487243652344
245.1405 4807.630859375
246.1200 4830.19189453125
246.1600 4596.9375
247.0400 394.317169189453
247.1312 1358.61547851563
247.8800 14.6368017196655
248.1007 173.791061401367
248.2400 15.7597761154175
248.8300 35.4970588684082
249.0900 278.500518798828
249.8600 11.6994400024414
250.0200 33.8974113464355
250.8400 77.6167449951172
251.0900 38.8639259338379
251.8800 53.4798316955566
252.7100 19.6093864440918
252.9895 231.070709228516
253.0900 359.119781494141
253.8700 42.2662582397461
253.9656 78.6375732421875
254.0780 59.1135520935059
254.2100 48.6725234985352
255.0204 710.85693359375
255.2400 38.1565933227539
256.0198 192.953262329102
256.1600 121.709297180176
256.4100 13.6399898529053
257.1300 3653.56201171875
258.1395 23620.400390625
259.1493 9768.7353515625
260.1591 1651.48510742188
260.6841 7.66582870483398
260.9404 159.255645751953
261.2200 42.3336143493652
261.9700 21.0628852844238
262.9000 63.5387763977051
262.9700 100.174667358398
263.0557 5.73720932006836
264.0185 179.534408569336
264.1749 17.6459503173828
264.8500 47.9627342224121
264.9800 52.8770751953125
265.1300 54.1273880004883
266.5800 38.1874580383301
266.9400 233.562896728516
267.0500 10.0200042724609
269.0434 737.851806640625
269.8349 34.794075012207
270.0200 195.337799072266
270.1900 213.04606628418
270.3500 38.5661277770996
271.1401 21740.853515625
272.1499 7937.13427734375
273.0505 1344.55883789063
273.6600 28.5259037017822
273.8000 22.044958114624
273.9400 16.7875366210938
274.0642 55.0730895996094
274.1900 29.8122882843018
274.8000 96.0012435913086
275.0100 316.0654296875
275.9739 113.511108398438
276.8581 177.4326171875
277.8200 106.326156616211
278.7921 193.069534301758
279.0581 31.2792053222656
279.7200 21.6762733459473
279.8763 42.7847366333008
280.1000 28.8512783050537
280.9600 410.612762451172
281.1800 67.3604202270508
281.7200 12.3511667251587
282.1900 32.6152305603027
282.7200 31.3632164001465
282.8910 12.3760223388672
283.0147 240.734970092773
283.2000 53.9907646179199
285.0518 600.25439453125
286.0051 202.916290283203
286.1790 42.3022613525391
286.8900 93.0130767822266
287.0800 142.550384521484
287.2600 18.251615524292
287.9232 27.0780410766602
288.9847 461.1064453125
289.8700 125.198501586914
290.7300 38.4283790588379
291.0600 300.259002685547
291.8300 119.954872131348
293.8000 223.655166625977
294.9700 623.517700195313
295.8100 11.4924230575562
296.1000 124.936889648438
296.9950 365.637817382813
297.7784 5.44051933288574
297.9129 73.4193115234375
298.0282 14.6916580200195
298.1300 115.667373657227
299.1700 5234.62939453125
300.0978 383.91259765625
300.2000 899.310485839844
300.9970 245.283203125
301.2300 28.7875576019287
302.0900 13.1493978500366
302.7700 55.7421875
302.9635 70.9878082275391
304.7700 20.9380035400391
304.9100 47.7618293762207
305.0500 57.5579566955566
306.9946 3.59317016601563
307.1300 71.7904663085938
307.9944 2.33661651611328
308.1100 24.1001071929932
309.0667 87.562370300293
309.2800 11.9280376434326
310.7700 37.9225654602051
311.1400 47.1369400024414
311.3100 25.2703895568848
312.0500 17.9373683929443
312.1500 122.542335510254
312.4600 14.9208736419678
313.1500 580.264892578125
313.3200 12.9544248580933
314.2101 34315.65234375
315.0596 13.1261291503906
315.1900 5205.47900390625
315.2500 2734.31274414063
316.1400 991.27197265625
316.2700 68.1431274414063
316.5100 41.2202110290527
317.0400 99.5982666015625
317.1600 42.3105392456055
317.3000 48.9509811401367
317.6000 12.0242395401001
318.8300 53.6234321594238
323.0762 36.8375930786133
324.3700 11.0285587310791
326.2800 17.4250679016113
326.4900 15.141303062439
326.9400 30.7988681793213
327.0357 10.9199981689453
327.2200 21.5778331756592
327.9700 37.2284889221191
328.1400 73.6949462890625
328.3500 11.4551401138306
328.9672 6.91363334655762
330.6000 26.5766868591309
330.7800 18.2541160583496
332.6914 72.9727249145508
332.8200 17.1430644989014
332.9700 78.8499755859375
334.8600 13.3040208816528
335.1100 43.9869384765625
337.0200 30.1960144042969
338.0600 12.9555759429932
338.8000 19.4289836883545
344.7100 46.6375999450684
345.7900 12.1294870376587
347.1000 25.8781032562256
347.9700 11.8387174606323
348.4900 12.3311538696289
349.0456 36.9275054931641
349.8725 16.0775413513184
350.8200 14.4802627563477
350.9873 116.963317871094
352.7000 17.1767845153809
352.7979 160.265991210938
353.0400 37.6906127929688
353.1800 30.1707592010498
353.9200 43.9253807067871
355.0100 98.9004364013672
355.1600 13.3217716217041
359.1200 25.2905921936035
360.9100 47.568172454834
361.1000 13.7071466445923
363.0520 19.7053527832031
363.9500 10.7414884567261
365.1400 37.8288383483887
366.7600 23.4510040283203
367.1000 93.5511016845703
370.8900 134.088821411133
371.1700 14.1033306121826
372.0400 10.9785223007202
372.8100 13.7650241851807
379.0500 11.9729995727539
380.9300 10.9385471343994
382.8200 12.0429544448853
383.0900 15.6477270126343
408.9200 12.3704214096069
410.9200 14.1491060256958
473.0700 12.2125387191772
