#"+EI Scan (rt: 1.577-1.659 min, 15 scans) R7M1.D  Subtract "
#Point,X(Thompsons),Y(Counts)
40.0859 174.058563232422
41.0676 7287.083984375
41.9300 41.9166412353516
42.0578 567.740844726563
43.0800 7549.67041015625
44.0042 778.440063476563
44.9000 149.894012451172
46.1200 26.6017112731934
47.0489 207.426239013672
49.0382 16.9504547119141
49.9769 78.5458679199219
50.0700 71.2190093994141
50.9985 612.093872070313
51.9850 164.163818359375
52.1700 182.720718383789
53.0252 2087.1240234375
54.0268 361.619110107422
54.1634 30.6191291809082
55.0534 3824.56298828125
57.0550 49.47119140625
57.8300 26.7486572265625
58.0798 30.403076171875
58.2000 122.680976867676
59.0400 6994.1884765625
60.0361 806.689025878906
60.1700 29.2207145690918
60.9000 109.223663330078
61.7300 15.8604545593262
62.0247 15.4371337890625
62.1300 80.0232620239258
62.8900 228.543716430664
62.9819 228.115051269531
63.1300 43.938304901123
63.9605 267.835632324219
64.9847 944.205322265625
65.0622 915.450134277344
65.9800 578.709167480469
66.0780 253.285842895508
66.1800 30.2773323059082
67.0343 4386.38525390625
68.0715 1845.56567382813
69.0426 2281.810546875
69.9800 259.065277099609
72.0397 3516.07885742188
73.0498 290.9326171875
74.0635 281.262878417969
75.0700 662.615173339844
76.0400 731.499267578125
77.0358 5967.9755859375
78.0300 2370.55078125
79.0400 4520.03662109375
80.0318 1192.45458984375
80.1400 44.4428520202637
81.0114 1850.58544921875
81.9987 271.723083496094
82.0900 327.884124755859
82.9600 207.322052001953
83.1500 124.027557373047
83.8800 44.5026664733887
84.0142 266.902648925781
86.0161 521.659362792969
86.1600 162.042343139648
87.0400 867.823669433594
87.8400 149.88655090332
87.9548 166.44287109375
88.0831 71.2247161865234
89.0200 940.3427734375
90.0126 238.497344970703
90.0800 283.316986083984
91.0390 8821.3505859375
92.0800 1546.60571289063
93.0336 3307.90966796875
93.8600 70.7636642456055
94.0092 787.928161621094
94.1344 105.706657409668
95.0400 1445.7763671875
96.0000 674.281860351563
97.1500 237.120727539063
98.0279 242.97038269043
99.8800 67.0631866455078
99.9993 354.948486328125
100.4400 109.348114013672
100.6200 39.9258079528809
100.7500 93.6168594360352
101.0700 338.531768798828
101.1800 34.4337730407715
101.9735 775.513427734375
102.0880 133.803039550781
102.3500 28.6675415039063
103.0271 2368.49609375
104.0580 592.650939941406
105.0178 2270.35131835938
105.0609 2978.05981445313
106.0325 933.918212890625
106.1423 390.418334960938
107.0459 6527.5244140625
107.9614 671.508422851563
108.0647 1134.51794433594
109.0181 2271.548828125
110.0089 567.81884765625
110.8900 62.0183143615723
111.0357 358.251220703125
112.1147 35.4408569335938
113.0910 754.088989257813
114.0500 914.390869140625
114.1800 152.461807250977
115.0359 5699.4833984375
116.0000 1125.98583984375
116.0740 545.135498046875
117.0060 2071.22680664063
117.9821 408.334533691406
118.1112 276.644836425781
119.0454 7391.40234375
120.0497 1702.47412109375
121.0314 1923.40209960938
121.0800 2721.69848632813
121.9658 171.70491027832
122.0809 2342.41650390625
122.9000 197.507232666016
123.0237 3657.94970703125
124.0273 1881.18933105469
124.9100 116.472465515137
125.9416 297.073638916016
127.0063 1173.99047851563
127.0776 621.024169921875
128.0566 5338.43701171875
128.9425 346.016540527344
129.0374 2420.82470703125
130.0485 774.865844726563
131.0233 2820.08349609375
131.9579 703.224365234375
132.0706 257.606384277344
133.0155 2123.43603515625
134.0682 3708.05810546875
135.0303 2001.6845703125
136.0348 2596.24291992188
137.0100 3441.357421875
138.0100 767.666259765625
139.0008 404.330322265625
139.9361 32.331298828125
140.0779 124.600326538086
141.0000 2743.701171875
142.0400 1615.98999023438
143.0033 427.416290283203
143.0900 739.228393554688
143.9100 69.5487442016602
144.0241 1187.93591308594
145.0300 3146.01806640625
145.9808 440.344787597656
146.0700 432.013000488281
146.2700 21.0341243743896
147.0128 3523.74536132813
147.9527 650.128173828125
148.0520 623.243530273438
149.0189 2127.814453125
149.8100 19.9308776855469
150.0174 1194.15100097656
150.1400 175.637268066406
151.0356 1621.25927734375
152.0408 2689.73974609375
152.9842 392.013549804688
153.0600 1635.58435058594
153.7837 10.4187755584717
154.0552 1007.71002197266
155.0116 1656.80029296875
155.9661 279.052276611328
156.0500 409.472106933594
156.9502 40.8399047851563
157.0269 1587.41650390625
158.0168 955.458129882813
158.9654 2098.453125
159.9905 2233.82177734375
161.0300 4943.4189453125
161.7400 16.5551891326904
161.8955 46.8591003417969
162.0090 949.199523925781
162.9813 605.12548828125
163.8964 23.2348251342773
164.0152 451.620330810547
164.9766 173.078689575195
165.0571 3570.99609375
166.0700 1071.21838378906
166.9828 870.17041015625
167.8878 246.096008300781
168.0241 350.305114746094
168.1200 151.049163818359
169.0373 971.386169433594
169.8529 7.16221237182617
170.0316 385.766235351563
170.0900 326.854949951172
170.3500 42.4347801208496
170.8700 93.0883712768555
170.9889 975.335144042969
171.9066 140.855804443359
172.0435 457.208038330078
172.1600 164.902786254883
173.0400 3963.1533203125
174.0403 12840.3662109375
175.0594 5254.998046875
175.9890 516.966857910156
176.0600 878.514709472656
177.0500 944.133544921875
178.0576 1748.70849609375
179.0000 512.325439453125
179.0761 650.054931640625
179.6700 36.2176094055176
179.7900 29.6752052307129
179.8829 23.9107818603516
180.0313 295.8291015625
180.1640 31.0936489105225
180.9759 365.254516601563
181.0700 1846.43713378906
182.0419 1139.34375
182.9568 244.822448730469
183.0579 2108.35595703125
183.9600 490.502838134766
184.0729 420.536193847656
184.9771 1288.42956542969
185.9900 543.303833007813
186.0741 450.905609130859
187.0330 5018.53564453125
188.0500 3061.1064453125
189.0601 6078.12060546875
189.8200 27.4121417999268
190.0800 3011.55883789063
190.8608 57.4817733764648
191.0113 1052.82116699219
191.9564 186.720916748047
192.0900 334.382751464844
193.1000 16244.3173828125
194.0672 2442.99291992188
195.0300 2516.12426757813
195.9600 100.851104736328
196.0500 472.841857910156
196.9741 190.553344726563
197.0600 1541.64624023438
198.0386 714.960693359375
198.8000 134.289886474609
199.0300 2297.57885742188
200.0274 1378.61462402344
200.1600 101.998794555664
201.0497 7684.49365234375
202.0622 2421.81811523438
203.0234 1519.60620117188
203.8200 41.3917846679688
204.0020 270.526916503906
204.9100 375.815887451172
205.0324 89.9049224853516
205.7500 19.6058177947998
205.9348 36.5314636230469
206.0822 324.713073730469
206.9270 243.044342041016
207.0337 779.826049804688
208.0267 418.725402832031
208.1300 230.257064819336
208.9800 401.833251953125
209.1038 66.9742279052734
209.8000 18.9904308319092
209.9400 101.513328552246
210.0399 140.414901733398
210.1700 67.9383316040039
211.0100 1178.15576171875
211.8800 140.067718505859
212.1200 512.177673339844
213.0210 1556.71520996094
214.0410 1867.36547851563
214.2300 94.3567733764648
214.9910 3957.673828125
215.9855 655.26953125
216.9912 1669.654296875
218.0300 560.192321777344
218.9500 754.3154296875
219.8300 145.907424926758
220.0334 69.6256790161133
220.9041 443.594848632813
221.8200 76.4103851318359
221.9834 100.626083374023
222.7800 46.519645690918
223.0600 144.108489990234
223.9200 148.251373291016
224.0390 114.467491149902
224.1555 3.071213722229
224.2800 23.9333915710449
224.8209 16.0232849121094
224.9800 376.481414794922
225.0719 115.911926269531
225.1900 68.8902130126953
225.8400 24.0746803283691
226.0352 216.669738769531
226.1900 281.014312744141
226.3300 33.4748344421387
227.0374 648.1015625
227.9643 27.3129501342773
228.0500 324.97265625
228.1370 231.761962890625
228.8800 80.1029891967773
229.0900 1927.09448242188
229.9809 90.8528823852539
230.0454 199.767578125
230.1328 551.829223632813
231.1294 75156.3671875
232.1193 12536.6875
233.0171 3124.29296875
233.9966 476.455322265625
234.8400 66.5120544433594
234.9540 643.35009765625
236.9753 1376.3681640625
238.9656 361.382446289063
239.8000 52.2002563476563
239.9389 62.8924713134766
240.1281 22.1127319335938
240.3800 23.4223098754883
240.8100 69.6271743774414
241.0600 590.603271484375
241.9424 68.1439361572266
242.0800 398.787078857422
242.1800 46.5273780822754
243.1039 3031.60278320313
243.8690 6.39369583129883
244.0100 328.346832275391
244.1300 690.546508789063
244.2900 26.3830585479736
245.1303 5182.89404296875
246.0100 58.426097869873
246.1397 8121.62451171875
247.0710 507.448303222656
247.1593 1067.29821777344
248.1100 181.885284423828
249.0820 187.213241577148
249.8600 10.5257196426392
250.0600 28.0183181762695
250.7000 52.894718170166
250.9559 60.2600593566895
251.1000 100.193046569824
251.9300 34.3459968566895
253.0700 477.479217529297
253.2000 47.2429580688477
253.9300 102.546058654785
254.0700 87.7449035644531
254.3100 43.3996200561523
255.0054 252.683380126953
255.0800 155.502365112305
255.1700 89.2147979736328
255.4400 14.3419218063354
255.9751 86.9875183105469
256.1500 186.4912109375
257.1183 3345.36010742188
258.1493 21663.380859375
259.1400 8557.4580078125
260.0600 476.260162353516
260.1400 945.447387695313
260.7551 0.482261657714844
261.0039 81.9914703369141
262.9563 27.8248596191406
263.0800 82.4777297973633
263.8475 7.36579132080078
264.0043 60.6673393249512
264.3600 25.2175025939941
264.7300 15.4887628555298
265.9200 10.8820352554321
266.7200 16.6352691650391
266.9101 1.78401184082031
267.0159 83.0589447021484
267.9800 67.4990386962891
268.9100 306.745758056641
269.1400 252.661193847656
270.0108 228.174057006836
270.1400 146.577499389648
271.1482 19016.62890625
272.0143 92.4844970703125
272.1502 6172.0361328125
272.9602 28.3754272460938
273.1100 1392.29626464844
274.0033 161.074523925781
274.1200 117.49698638916
274.8807 449.820220947266
275.8594 39.0115051269531
276.7055 21.6489562988281
276.8842 192.653228759766
278.0197 1.09990692138672
278.1200 35.5782508850098
278.8300 376.618225097656
279.6300 10.3243761062622
279.8500 48.5035591125488
279.9501 26.4372520446777
280.1200 13.9285020828247
280.2500 10.2932291030884
280.7797 19.0367469787598
281.0800 336.652709960938
281.9468 34.3177795410156
282.1300 79.647102355957
282.9000 249.896469116211
283.1531 62.6999893188477
283.9142 7.0252628326416
284.9919 129.428344726563
285.1421 149.143676757813
286.0100 151.96159362793
286.0921 298.503784179688
286.8300 95.8653106689453
287.1400 96.0822906494141
287.9300 71.8463516235352
288.9600 7.506103515625
289.9649 34.1957397460938
290.8060 42.8167419433594
290.9000 277.773864746094
291.7400 32.884521484375
291.8941 113.716873168945
292.1500 32.8182106018066
292.9652 383.3662109375
294.0000 599.608276367188
295.0057 726.629943847656
295.7500 45.5588111877441
295.9378 105.067291259766
296.2700 28.3608531951904
297.0300 893.600952148438
297.1000 260.859008789063
297.9690 94.6733856201172
298.1500 75.5854339599609
298.3900 24.3996448516846
299.0700 111.661239624023
299.1700 4478.572265625
300.1388 1085.66357421875
300.9742 161.855453491211
301.1176 4.54679489135742
301.8700 25.7255249023438
302.6600 26.8792953491211
302.9300 189.795150756836
303.2400 11.3369550704956
304.9000 113.898544311523
306.6000 10.6245145797729
306.9700 138.184143066406
307.0975 78.5563201904297
308.8800 57.1789779663086
309.1600 10.1978740692139
309.2600 35.5460548400879
310.7500 0.864772796630859
310.9000 51.6712112426758
311.0400 70.8312606811523
311.3300 13.1407957077026
311.6200 15.5970582962036
311.9100 42.6276779174805
312.0648 99.2315444946289
312.2200 31.604190826416
312.9800 72.5543670654297
313.1600 482.355865478516
314.2101 30231.59765625
315.1901 7303.98486328125
315.3000 66.6936416625977
316.0300 104.245635986328
316.2005 965.579406738281
317.0100 41.5320243835449
317.1700 17.6511783599854
318.8200 31.540002822876
319.0046 39.7457389831543
320.0900 12.5652885437012
324.8900 10.4073171615601
326.8600 47.763671875
326.9654 10.5235023498535
327.8200 18.0567951202393
328.0200 67.7458114624023
328.1500 45.0281181335449
328.7536 6.81323623657227
328.8900 25.8127765655518
330.6300 10.8212776184082
330.7600 79.028076171875
330.9494 6.73867034912109
331.8400 12.0672273635864
332.7700 52.8672294616699
333.0294 65.9108734130859
333.9600 11.953221321106
334.7100 32.6709442138672
336.9458 7.27920341491699
338.8900 26.6479454040527
339.8900 10.5168027877808
345.0800 66.4360809326172
347.0200 29.8812294006348
348.8460 51.2125396728516
349.9675 34.4063415527344
350.0800 37.8365058898926
350.7381 8.89843940734863
350.8974 71.5548400878906
351.9900 11.2387638092041
352.9883 86.4207611083984
353.9000 13.731707572937
354.7600 29.2420253753662
354.8800 42.4115753173828
355.0256 1.20906257629395
356.6700 10.3781747817993
360.9700 11.7522306442261
361.1000 10.4869403839111
363.0500 20.5983333587646
363.2000 10.5995759963989
366.6900 50.8504066467285
366.8000 27.2462425231934
367.1100 44.4249458312988
370.9200 68.2812957763672
371.0603 1.64734649658203
371.7200 15.3386878967285
381.2200 12.0382852554321
384.9100 11.9423513412476
386.9300 12.9826669692993
400.8000 33.6511077880859
401.0000 34.5849685668945
405.0700 13.0429086685181
408.8800 15.0306787490845
