#"+EI Scan (rt: 1.577-1.658 min, 15 scans) R4M1.D  Subtract "
#Point,X(Thompsons),Y(Counts)
40.0831 351.098236083984
41.0774 6886.8935546875
42.0561 789.358032226563
43.0716 7369.86767578125
44.0080 908.496215820313
44.8300 47.1096687316895
45.1000 102.809860229492
45.9800 72.2313003540039
47.0400 298.225250244141
48.8375 8.61337089538574
48.9377 73.3630676269531
49.0600 20.9729957580566
49.7700 14.2796907424927
49.9710 135.846908569336
50.1000 47.3889999389648
51.0305 771.099060058594
51.8700 41.0337944030762
52.0256 403.205749511719
53.0356 2101.68603515625
53.9718 143.083312988281
54.0835 198.357025146484
55.0505 3860.0341796875
57.9600 161.23664855957
58.1900 151.323104858398
59.0400 8496.501953125
59.8900 27.2599391937256
60.0100 218.959106445313
60.8600 51.0647315979004
62.0003 228.306610107422
62.8900 146.848663330078
63.0025 221.072479248047
64.0248 307.976715087891
65.0300 2093.69946289063
66.0200 928.237182617188
67.0412 4302.59228515625
68.0613 1977.35534667969
68.1800 41.2791938781738
69.0488 2201.49609375
69.9300 72.0793151855469
71.0748 348.9384765625
71.9344 45.27197265625
72.0477 3827.35620117188
73.0500 552.171875
74.0640 86.2290649414063
74.9500 801.950073242188
76.0009 317.217895507813
76.1061 133.639190673828
77.0300 6648.43359375
78.0300 2260.0166015625
79.0273 4176.6806640625
79.9587 253.180297851563
80.1015 1016.02038574219
81.0058 2185.28369140625
82.0456 1137.87170410156
83.0500 207.329833984375
84.1400 290.827453613281
85.0100 1418.94140625
86.0600 777.073974609375
86.1900 65.2447357177734
87.0645 546.422485351563
87.9000 121.998237609863
88.0315 252.454193115234
88.1600 77.2585601806641
89.0003 986.58056640625
89.9018 46.466423034668
90.0195 346.80029296875
91.0472 8855.3037109375
92.0606 1471.853515625
93.0366 3157.59228515625
93.9748 143.510177612305
94.0800 767.691467285156
94.9574 555.68505859375
95.0560 513.589477539063
96.0638 485.787963867188
97.0642 252.510498046875
98.1400 237.466781616211
98.9104 4.30170822143555
99.0435 507.046630859375
99.9290 256.48193359375
100.0500 258.893676757813
100.3700 22.6150722503662
100.5100 56.9167633056641
100.8600 234.920761108398
101.0205 51.389404296875
102.0159 768.981201171875
102.1500 59.2354316711426
103.0200 2437.3564453125
104.0016 309.748870849609
104.0911 329.388305664063
105.0200 2030.58361816406
105.0617 2483.75610351563
106.0273 831.03564453125
106.1200 367.1123046875
107.0600 7323.0361328125
107.9800 528.806213378906
108.0737 1028.36804199219
108.1800 145.993957519531
109.0200 2411.33349609375
110.0815 584.327392578125
111.0241 172.333618164063
111.8500 86.4270477294922
112.2700 55.8813400268555
112.9615 84.179931640625
114.0319 804.791015625
114.1600 239.729431152344
114.3000 62.1754608154297
115.0274 5349.2490234375
115.9249 90.9419708251953
116.0321 1147.4287109375
116.1500 80.5619888305664
117.0200 2326.41552734375
117.8800 29.1922168731689
117.9765 193.895782470703
118.0949 256.734008789063
118.9857 179.143432617188
119.0702 6636.37255859375
119.9600 170.292541503906
120.0606 1140.98791503906
121.0672 4672.13671875
122.0593 2290.4345703125
123.0137 3657.52099609375
123.8100 40.3276634216309
124.0077 1681.39135742188
124.1164 64.8889465332031
124.8800 74.1644439697266
124.9957 90.7698364257813
125.9664 180.522552490234
126.0935 48.4758911132813
126.9979 1808.79162597656
128.0490 4996.177734375
129.0322 2748.86987304688
129.9106 17.5691528320313
130.0400 515.774841308594
130.1535 160.622802734375
131.0010 2645.8779296875
131.7500 21.5084533691406
131.8952 95.4067077636719
132.0454 734.395751953125
133.0325 2312.26171875
134.0412 1145.22412109375
134.1000 2352.87377929688
135.0170 1857.685546875
135.8700 72.7360076904297
136.0222 1849.83862304688
137.0052 2897.1015625
137.9955 653.738037109375
138.9914 697.60546875
140.0200 405.276306152344
141.0100 2910.86328125
142.0141 1372.01831054688
142.9100 203.780364990234
143.0127 556.090393066406
143.1167 249.363677978516
143.9200 184.474090576172
144.0483 698.555358886719
144.1217 399.473571777344
144.7400 38.6543502807617
145.0390 2702.44653320313
145.9553 400.878112792969
146.1009 350.245666503906
147.0132 3352.73950195313
147.9811 944.573181152344
148.0932 334.698913574219
149.0215 1911.33068847656
149.8400 55.2339324951172
150.0425 1250.5263671875
151.0600 833.313720703125
152.0228 2114.27392578125
152.9609 331.994842529297
153.0479 1184.11584472656
154.0051 440.427764892578
154.0800 525.525024414063
155.0100 1487.97583007813
156.0015 362.762237548828
157.0036 1517.17724609375
158.0500 1178.37036132813
158.9811 2401.5
159.9938 2101.708984375
161.0069 3433.06909179688
161.9976 775.478576660156
162.1400 124.534393310547
162.9800 561.955078125
164.0283 511.788879394531
165.0595 3658.98681640625
165.8893 12.9803695678711
166.0200 842.911437988281
166.0967 29.7347106933594
166.9495 321.748870849609
167.0900 256.256530761719
167.9653 324.747192382813
168.0400 506.570495605469
168.5500 25.1270160675049
169.0214 965.988037109375
169.7973 24.7499542236328
170.0277 643.922546386719
170.1500 156.414703369141
171.0240 1500.01904296875
171.8895 4.74259948730469
172.0490 689.259521484375
172.8971 129.383377075195
173.0478 3514.86474609375
173.9795 1718.74865722656
174.0401 10034.5185546875
175.0585 4767.52001953125
175.8600 54.3114013671875
176.0205 1357.6044921875
176.7900 30.1700992584229
176.9425 292.297668457031
177.0476 393.809906005859
177.9016 69.2531051635742
178.0686 1466.05102539063
178.9464 125.665832519531
179.0654 585.581909179688
179.6400 10.9305210113525
179.8624 40.4623336791992
180.0200 229.421722412109
180.9400 291.757019042969
181.0233 1998.58544921875
181.9424 121.79035949707
182.0600 961.344360351563
183.0418 2200.71997070313
183.9000 126.934944152832
184.0515 541.598327636719
185.0200 1802.41882324219
186.0093 885.590881347656
186.1123 116.333450317383
187.0412 5186.04150390625
188.0297 1340.158203125
188.0900 1358.04504394531
189.0500 5433.81982421875
189.9577 342.929168701172
190.0700 2053.80493164063
190.8082 21.1539154052734
191.0065 847.291625976563
191.9300 83.2996063232422
192.0304 483.363037109375
192.1600 35.0770225524902
193.0998 14757.029296875
194.0300 988.2744140625
194.1000 1628.01306152344
194.9824 1339.19030761719
196.0385 762.916625976563
196.1700 19.7714138031006
196.9895 1165.38244628906
197.9705 130.809753417969
198.0739 580.179382324219
199.0300 2217.64599609375
199.9727 277.024932861328
200.0900 916.557373046875
201.0460 7471.6826171875
201.7562 11.2182788848877
202.0125 1590.91662597656
202.1000 729.789245605469
202.9874 321.536529541016
203.0600 1158.68713378906
203.9262 132.040832519531
204.1035 211.657012939453
204.5600 11.9607610702515
205.0000 303.624084472656
205.1050 36.670768737793
206.0500 294.048187255859
206.2459 77.3886413574219
207.0214 670.992431640625
207.8634 138.849517822266
208.0800 221.590591430664
208.8900 67.2144241333008
208.9991 330.444091796875
209.7679 22.4796447753906
209.8700 40.8858489990234
210.0222 188.491119384766
210.3100 33.0771903991699
211.0054 986.69189453125
211.9902 519.318481445313
212.1000 267.482177734375
212.9683 707.98876953125
213.0453 704.1875
213.8907 25.6738891601563
214.0561 1812.39294433594
214.9909 3418.19921875
215.9854 602.5703125
216.9884 1280.70483398438
217.7222 12.6033344268799
217.9948 462.747528076172
218.9453 610.02197265625
219.9000 70.336181640625
219.9948 3.21720886230469
220.8400 425.525726318359
221.0700 180.759536743164
221.9508 195.736022949219
222.8000 36.1312026977539
223.0159 270.334564208984
223.9500 171.175964355469
224.0824 135.113372802734
224.8677 15.5206527709961
225.0178 497.306823730469
225.1018 79.2385406494141
225.9207 50.7526741027832
226.0400 288.359710693359
226.1557 107.205261230469
226.8862 120.201011657715
226.9883 345.876953125
227.1363 169.155792236328
227.8500 14.3696508407593
228.0200 153.011138916016
228.1200 317.523162841797
229.0507 1713.33605957031
229.6900 26.9814968109131
229.8892 74.0875015258789
230.1100 681.091125488281
231.1298 69835.15625
232.1197 11844.111328125
233.0115 3138.236328125
233.9887 367.680206298828
234.9000 431.246490478516
235.8937 23.5716247558594
236.0274 58.0233535766602
236.9748 596.099609375
238.0100 680.676025390625
238.8800 176.095993041992
238.9749 35.7955322265625
239.9765 157.665313720703
240.1700 83.503791809082
240.9800 182.338623046875
241.0800 78.8196640014648
241.9678 76.5251159667969
242.0900 304.503051757813
243.1200 3184.61376953125
244.0600 441.514923095703
244.1500 485.620788574219
244.9650 0.00347900390625
245.1097 4410.900390625
246.1400 7924.2294921875
247.0800 596.036560058594
247.1700 883.560424804688
248.0000 19.1061668395996
248.1600 106.898826599121
248.2800 21.3468112945557
249.0097 311.474151611328
249.2500 37.2113227844238
249.9700 66.2485885620117
250.9611 137.166412353516
251.1600 31.3382530212402
252.1000 23.5976867675781
252.4100 16.0348491668701
252.9443 21.8403778076172
253.0600 444.350372314453
253.2400 11.1743326187134
253.9700 97.8556137084961
254.1453 40.062126159668
254.4800 10.3751516342163
254.9100 77.143310546875
254.9971 70.5201568603516
255.1400 386.700378417969
255.7900 26.7227401733398
255.9800 79.1427917480469
256.1100 224.26432800293
257.0597 944.852416992188
257.1400 2294.09692382813
258.1399 18992.74609375
259.0731 297.707550048828
259.1500 6954.1064453125
260.0800 746.376770019531
260.1600 547.389221191406
260.9147 7.73308944702148
261.2000 107.4423828125
262.8200 78.7616271972656
263.8000 32.1542205810547
264.0800 129.003814697266
265.0500 64.9319000244141
265.1700 50.8947601318359
266.5900 14.2372312545776
266.8000 142.15771484375
267.1900 11.003755569458
267.5700 22.6560020446777
267.8600 10.9843597412109
268.8455 86.1107482910156
268.9851 3.5255126953125
269.1600 173.82861328125
270.0728 221.492553710938
270.1800 52.5944023132324
271.1492 17537.041015625
272.1000 1691.54528808594
272.1602 4489.93310546875
273.0900 1300.55895996094
273.6800 20.7988090515137
274.0677 161.320373535156
274.8400 113.06867980957
274.9551 5.9342041015625
275.6700 27.760232925415
275.7928 31.6055221557617
275.9100 62.3475570678711
276.6700 39.5935020446777
276.9855 218.783935546875
277.9529 74.7484664916992
278.1000 35.4246368408203
278.8485 182.604858398438
280.8395 115.053588867188
282.0100 46.2866630554199
283.0800 199.676483154297
283.2100 15.4921655654907
284.9827 228.144195556641
285.1056 93.2388916015625
286.0678 134.624160766602
286.1600 203.44287109375
287.0600 186.035797119141
288.9593 375.91796875
289.9500 304.857238769531
290.8979 439.1083984375
291.8391 8.67957305908203
292.9451 110.378173828125
293.9203 440.098937988281
294.8677 159.947906494141
295.1000 30.5156745910645
295.9355 5.41098022460938
296.1000 182.061935424805
297.0500 712.620544433594
297.1300 114.566253662109
298.0500 80.3121795654297
298.2700 48.1812591552734
299.0186 99.678108215332
299.1700 4202.33349609375
300.0300 81.163948059082
300.1695 856.780883789063
300.3300 48.5744514465332
301.0700 105.666870117188
301.2300 83.9272384643555
302.9337 42.265022277832
303.0800 89.0946960449219
303.9400 14.0648946762085
304.1600 11.4956188201904
304.6400 16.0636959075928
305.1100 26.1159381866455
305.9800 11.6763954162598
307.0333 45.3917541503906
307.1600 26.258861541748
309.0312 30.7853889465332
309.1858 16.6723346710205
310.8847 58.9307403564453
311.0234 51.9938354492188
311.2400 13.3261461257935
311.9812 10.3118286132813
312.1500 100.764579772949
312.9500 55.5253677368164
313.1600 469.575836181641
314.2100 28826.587890625
315.0369 73.3765106201172
315.2100 6879.77099609375
315.8900 18.4999351501465
316.0900 128.471008300781
316.2300 690.940673828125
316.8100 19.9557189941406
316.9200 37.3449745178223
317.1000 31.6645832061768
317.2500 51.3947067260742
319.0500 28.6925106048584
322.9500 30.4676628112793
326.7900 13.9957523345947
326.9000 27.1458683013916
328.0800 10.9607839584351
328.2500 12.8393812179565
328.5800 26.5054321289063
328.9600 30.1546421051025
329.1300 45.049617767334
329.2600 11.1907739639282
329.9200 10.7862062454224
330.1400 11.5444240570068
330.7300 46.6053199768066
331.7900 11.6380777359009
331.9600 11.6030416488647
332.9100 24.6085243225098
333.0600 12.2551784515381
335.1500 10.8210649490356
344.9944 0.443349838256836
346.7900 32.573917388916
347.1100 11.3928842544556
348.7800 100.390678405762
349.0800 14.6442461013794
349.8300 22.132604598999
350.0100 12.299036026001
351.0200 99.5800399780273
352.6200 12.3212013244629
352.8143 60.6339454650879
353.0600 23.1611156463623
353.8000 29.3743209838867
354.9600 33.4026908874512
355.7300 11.9195928573608
356.8800 23.2363147735596
362.8800 24.1732349395752
364.6900 13.1455965042114
366.7600 15.6631231307983
366.8977 23.654670715332
367.0490 37.1274108886719
368.9200 10.8555192947388
370.9523 43.818962097168
378.8300 10.78284740448
379.2500 11.0773954391479
387.1600 10.4117040634155
400.8800 6.40164184570313
401.0300 11.316442489624
401.1700 10.3281059265137
404.9300 23.0894527435303
408.6900 13.9429407119751
408.8300 14.2117042541504
483.2300 22.3241710662842
