#"+EI Scan (rt: 1.985-2.084 min, 18 scans) R4M1.D  Subtract "
#Point,X(Thompsons),Y(Counts)
40.0798 12.4820861816406
41.0700 4988.0908203125
42.0200 440.427520751953
43.0647 4022.37060546875
44.1400 96.1865081787109
44.9200 280.246276855469
46.0500 27.2659778594971
47.7000 8.55080032348633
48.7500 15.0192718505859
48.9500 77.0728454589844
49.8400 27.1324634552002
50.2000 10.6114854812622
51.0100 237.388427734375
51.8500 30.6097278594971
52.0000 153.085510253906
52.1600 26.9521961212158
53.0300 1154.33349609375
54.0700 378.482482910156
55.0500 2952.25561523438
55.9100 157.389221191406
56.1500 114.133270263672
57.0100 1010.79895019531
57.8800 61.4712181091309
58.1000 64.2796325683594
58.2700 25.7968902587891
59.0446 1835.623046875
60.0400 172.760284423828
60.1800 25.0363101959229
60.8904 5.92446899414063
61.0400 55.3291778564453
61.9600 214.721145629883
62.0500 59.9844207763672
62.9467 221.412353515625
63.1000 105.108627319336
64.0000 259.542205810547
64.1700 11.5920677185059
64.8200 52.2949066162109
64.9500 204.806182861328
65.0515 177.138031005859
65.8600 4.26519012451172
65.9900 120.325401306152
66.0700 71.1138763427734
66.9400 308.062774658203
67.0464 600.921325683594
68.0200 217.790618896484
68.2200 30.4007949829102
69.0600 1587.18310546875
69.9000 78.8998184204102
70.0100 477.64111328125
71.0000 241.495391845703
71.8900 97.5035400390625
72.0500 306.953277587891
73.8100 54.4837951660156
73.9800 396.738891601563
74.9400 468.30517578125
75.0450 3.22119140625
75.9106 12.3652954101563
76.0564 217.095153808594
77.0296 1084.6630859375
78.0204 620.2490234375
79.0229 629.780151367188
79.7800 23.5270462036133
79.9000 124.418487548828
80.0292 36.6778869628906
81.0245 1101.59619140625
81.9300 167.058212280273
82.1000 269.004272460938
83.0403 1380.05908203125
83.8900 145.455917358398
84.1800 138.312728881836
84.9000 235.69514465332
85.1700 57.3240699768066
85.9800 106.036720275879
86.9500 290.360565185547
87.5400 9.99582958221436
88.0600 385.754486083984
88.9768 1164.11767578125
89.0800 112.14331817627
89.9600 557.151245117188
90.0691 95.414794921875
91.0382 668.031860351563
91.8657 49.5733871459961
92.0500 71.9843597412109
92.1600 54.9699516296387
92.8100 36.7541007995605
92.9200 114.99600982666
93.8900 56.0047607421875
94.0300 97.9867782592773
94.8500 25.2690944671631
95.0182 254.823181152344
96.0200 449.311706542969
96.1300 121.444732666016
97.0307 111.644897460938
97.1600 286.04150390625
97.9000 37.7821884155273
98.0239 126.161163330078
98.3100 29.3092002868652
98.6500 27.7774200439453
98.9400 5.38270568847656
99.0700 188.207092285156
99.9300 99.4232025146484
100.0300 59.6103248596191
100.3700 27.8409996032715
100.8400 83.3392486572266
101.0000 783.384338378906
101.9500 598.475830078125
102.0371 926.62646484375
103.0156 970.778686523438
103.6500 12.464882850647
103.9700 312.209533691406
104.0800 128.76676940918
104.3500 27.8957614898682
104.5000 29.8773498535156
104.6000 18.8476390838623
105.0100 163.162048339844
105.1500 188.101181030273
105.8400 80.2841262817383
106.0800 86.9071197509766
106.9900 360.922698974609
107.8500 89.4231948852539
108.0100 42.9740524291992
108.1200 147.516250610352
108.2300 16.4132080078125
109.0108 668.95751953125
109.8900 277.347564697266
110.0000 230.348937988281
110.7800 46.5882720947266
110.9200 286.882232666016
111.2100 75.9739074707031
111.4600 28.5292797088623
111.7900 16.0695381164551
112.0200 110.153457641602
112.1853 13.4990692138672
112.3800 43.2775955200195
112.5500 188.414916992188
112.7200 328.253723144531
112.8900 249.749588012695
113.7900 57.6809158325195
113.9491 59.1588439941406
114.0631 223.147338867188
115.0300 2716.89990234375
115.8600 50.5928268432617
116.0132 3402.51293945313
117.0300 2516.7099609375
117.7800 12.1365394592285
118.0350 687.510986328125
118.9600 221.449401855469
119.0413 39.3068542480469
119.4300 22.4286804199219
119.6800 81.6024932861328
119.8414 43.130859375
120.1800 108.541519165039
121.0400 136.240280151367
121.1600 10.3160228729248
121.8200 21.3714942932129
122.1300 29.0582580566406
122.2300 9.74709796905518
122.9280 177.321044921875
123.7600 11.3257532119751
123.9100 69.9532699584961
124.0500 124.092926025391
124.6200 23.7299118041992
125.0000 395.470825195313
125.0800 204.159378051758
125.5800 13.36376953125
125.9575 173.499664306641
126.3300 19.0110015869141
126.6300 13.0730075836182
127.0154 728.644104003906
128.0310 2210.44555664063
129.0201 2344.00537109375
130.0194 2966.10131835938
130.0900 829.270751953125
130.8900 87.6584320068359
131.0333 890.970092773438
131.8800 167.5712890625
132.0104 25.6896667480469
132.9700 662.815612792969
133.0500 89.7044830322266
133.9600 115.813629150391
135.8900 129.61018371582
137.0100 1404.16796875
139.0100 1788.3857421875
139.9900 134.56462097168
140.0746 21.8169250488281
140.1600 21.9846019744873
140.9369 181.715576171875
142.0300 649.88427734375
143.0385 1655.69091796875
144.0415 9923.658203125
145.0049 1746.69763183594
146.0400 258.0283203125
146.8100 90.3881530761719
147.1600 35.3280220031738
147.7700 49.7218971252441
147.9724 114.501190185547
148.2200 22.1384201049805
148.7300 9.62734603881836
148.8900 83.4844512939453
150.0300 127.961807250977
151.0300 490.976226806641
151.7500 44.0723266601563
152.0700 397.302276611328
152.9641 49.5365600585938
153.0760 141.157501220703
153.8500 44.8525619506836
153.9897 624.361083984375
154.0900 454.08056640625
155.0134 770.18017578125
156.0500 958.370239257813
156.9800 3.37530517578125
157.0500 826.616760253906
157.8100 15.735894203186
157.9900 867.338073730469
160.9615 493.378356933594
161.8500 44.2494316101074
161.9900 88.1277084350586
162.1400 17.2913722991943
162.9800 601.095581054688
163.7900 103.204368591309
164.1500 78.6693954467773
164.9600 573.081909179688
166.0000 414.838714599609
166.0710 34.2191009521484
166.8200 53.7130851745605
166.9993 1881.197265625
167.9969 429.632629394531
168.0800 1000.314453125
169.0200 597.072631835938
169.8800 126.187255859375
170.0200 876.615173339844
170.9920 227.232269287109
171.8500 62.3779144287109
171.9900 291.411743164063
173.0039 26.1597290039063
173.9500 159.907241821289
174.0928 434.803100585938
174.6600 18.524751663208
174.7800 45.6999435424805
174.9065 75.9672546386719
175.0900 142.029541015625
175.8300 37.3011894226074
176.0000 73.0983505249023
176.2000 13.6368818283081
176.8984 37.6962051391602
177.0000 110.608451843262
177.8900 133.361968994141
178.0057 93.1904754638672
178.7600 13.2434730529785
179.0100 196.582305908203
179.3000 11.0433416366577
179.9200 96.9281768798828
180.0518 1305.8427734375
180.8500 81.8602066040039
180.9928 1518.87963867188
181.9750 6.90045166015625
182.0900 1128.99853515625
182.8900 9.11054134368896
183.0000 565.023742675781
183.1100 439.439605712891
184.1000 468.978729248047
184.9200 570.4150390625
185.7900 66.9292297363281
185.9500 131.489440917969
186.0751 226.872299194336
186.8900 140.608489990234
187.0538 874.278442382813
187.9100 30.3363380432129
188.0378 54.046630859375
188.1200 357.953094482422
188.2200 160.134689331055
188.9561 71.6641387939453
189.0800 110.013854980469
190.1200 34.8678283691406
191.0500 597.194152832031
191.7100 12.2351455688477
191.8626 53.7409439086914
192.0100 264.715118408203
192.9400 967.143676757813
193.9100 100.928825378418
194.0675 640.789367675781
195.0100 839.753173828125
196.0600 1754.69580078125
196.9516 495.145751953125
197.8370 17.6284637451172
198.0200 172.529602050781
198.0800 172.031066894531
198.9400 916.096130371094
199.0500 60.5379371643066
199.9156 9.86868286132813
200.1500 28.5389537811279
200.7200 33.4319610595703
201.8400 77.6072540283203
201.9524 37.2880859375
202.7900 116.637977600098
203.0500 23.2507820129395
203.8400 12.3533134460449
203.9836 142.520538330078
204.1100 36.2510833740234
204.7300 17.6804122924805
204.9800 133.92138671875
205.1200 52.7738800048828
205.6200 8.86587333679199
205.8200 16.7729263305664
206.1200 43.992546081543
207.1100 311.174621582031
208.0738 167.163024902344
208.1900 49.4738655090332
208.8700 113.272415161133
209.0800 263.959899902344
210.0550 1303.87316894531
210.1800 53.6280517578125
211.0000 1104.5244140625
212.0289 358.244506835938
212.1600 157.452178955078
212.8700 62.0810470581055
212.9951 25.8399658203125
214.1100 37629.671875
215.0157 4761.5947265625
215.9865 652.9072265625
216.9463 472.832214355469
217.8300 70.828857421875
218.0500 53.7477149963379
219.9770 146.604217529297
220.6900 25.3916702270508
220.9700 593.9677734375
221.0900 73.0666809082031
221.9000 64.8558654785156
222.2000 27.5491847991943
222.3900 37.5788307189941
222.9053 287.340942382813
223.0400 71.4184417724609
223.9600 257.149169921875
224.0970 432.438415527344
225.0600 398.5302734375
225.1900 58.0790672302246
226.0700 122.038246154785
226.2000 17.6387100219727
226.6300 10.2233629226685
226.8000 42.4317512512207
227.0012 168.339813232422
227.1400 67.9195327758789
227.9241 46.0787353515625
228.1079 569.030944824219
228.3700 26.4887638092041
229.1036 2086.2958984375
230.0300 344.300170898438
230.1291 92.3115539550781
230.8000 29.4105739593506
230.9099 43.6783905029297
231.0401 1.73918151855469
231.9700 51.2078399658203
232.9900 460.5400390625
234.8500 245.029266357422
235.7600 32.4776191711426
235.8600 48.7509613037109
236.1100 76.7409362792969
236.9653 883.17919921875
238.0900 3021.84716796875
238.7400 65.6822509765625
238.8500 55.0878219604492
238.9500 511.570037841797
239.1800 35.6896667480469
239.9588 34.7192535400391
240.0900 267.655151367188
240.2600 36.9433212280273
240.7200 48.52880859375
240.8800 79.6056823730469
241.0600 166.259582519531
242.0830 74.8046035766602
242.9500 209.455978393555
244.7000 27.6071815490723
245.2800 19.1683521270752
246.1200 8.6234073638916
248.3200 9.370680809021
248.8100 30.8215560913086
249.1000 208.416229248047
249.9500 23.0524158477783
250.0700 27.8351001739502
250.1600 38.1836051940918
250.7400 8.80933856964111
250.8900 107.695281982422
251.0100 49.2787895202637
251.1300 21.2143020629883
252.0300 74.6750869750977
252.1600 3131.71020507813
253.0500 508.612731933594
253.1610 1368.61108398438
253.3400 22.733226776123
254.1200 1130.65307617188
254.8200 103.486671447754
255.1100 78.1226043701172
255.8600 45.386100769043
256.0700 60.7831497192383
256.3800 13.1457796096802
256.5400 14.7417078018188
256.7800 92.9313507080078
257.0500 13.9038791656494
257.8200 8.77972793579102
257.9600 27.8213710784912
258.0600 22.9065780639648
258.8100 83.4437866210938
259.8400 41.1653442382813
260.0500 20.2833728790283
260.7400 50.2149848937988
260.9300 72.8854064941406
261.0500 10.9404535293579
262.5700 9.59416007995605
263.0100 87.2444610595703
263.1900 26.2994995117188
263.9400 13.5438385009766
264.5800 10.0602321624756
265.7900 19.1600112915039
265.9100 13.287914276123
266.0700 53.8177680969238
266.1900 47.1195602416992
266.8700 31.2844638824463
267.1100 125.248519897461
268.1400 1650.03479003906
268.3200 48.6899185180664
268.9100 152.009216308594
269.0576 310.304931640625
269.1900 70.8745880126953
269.8700 44.1172637939453
270.1400 820.430053710938
270.2700 23.0114555358887
270.9500 387.848876953125
271.0500 423.992889404297
271.9800 125.40771484375
272.2400 21.51584815979
272.3700 10.7127914428711
272.9400 430.892700195313
273.9300 84.0201568603516
274.0300 63.9561500549316
274.9500 555.685913085938
275.6900 22.3585681915283
276.0200 92.1958312988281
276.2400 8.79721546173096
276.4100 9.99209117889404
276.7400 97.8561935424805
276.8500 295.408081054688
277.0500 37.8695106506348
277.9017 37.4583969116211
278.0700 55.7350158691406
278.2300 41.4115791320801
278.6100 27.9937515258789
278.7600 23.0842571258545
279.0000 325.301879882813
279.1400 13.0943717956543
279.7400 14.5883073806763
280.1200 101.362518310547
280.1900 47.6549987792969
280.8400 40.316593170166
281.0900 395.845581054688
281.8700 42.2051582336426
282.0100 84.0866317749023
282.1152 8.26062774658203
282.2800 103.507911682129
282.8000 20.9896430969238
282.9920 43.5285110473633
283.1200 11.3401260375977
283.2200 27.9591579437256
284.0200 10.0454330444336
284.1900 9.23515129089355
284.7600 23.8024024963379
285.0400 461.257690429688
285.9300 104.549644470215
286.0500 68.9844055175781
286.2200 20.150598526001
286.7200 9.83019638061523
286.8300 159.296264648438
287.0900 139.327239990234
287.2100 39.6836013793945
288.0100 23.5911350250244
288.1600 13.7653455734253
288.3000 10.9659748077393
288.8700 318.756561279297
288.9402 42.0274658203125
289.8300 170.777969360352
289.9300 318.071563720703
290.6400 14.1893892288208
290.9800 206.662200927734
291.1500 45.5379638671875
291.8100 17.7056980133057
291.9800 111.469169616699
292.1700 18.3790836334229
292.9600 8.5458984375
293.6600 33.366153717041
294.0000 229.675964355469
294.0757 432.82470703125
294.9900 481.524566650391
295.1000 40.7243614196777
295.2500 51.7339019775391
296.1865 5388.94091796875
296.7800 75.8972778320313
297.0700 914.681335449219
297.1826 275.569519042969
298.0600 175.518600463867
298.2100 18.8225193023682
298.7000 21.0988521575928
298.8300 24.7803726196289
299.8800 10.205340385437
300.9200 64.1371154785156
300.9902 1.99577331542969
302.9700 49.8173065185547
303.1100 56.1623992919922
304.9700 28.064754486084
306.9836 9.36885070800781
307.8700 10.2950468063354
308.0600 9.92917537689209
309.8600 17.7214221954346
310.1600 226.919631958008
310.3000 9.60991954803467
311.1984 3845.470703125
311.9500 17.617696762085
312.1200 595.988891601563
312.2073 399.924743652344
312.4900 10.5713844299316
312.9800 23.9878921508789
313.1200 251.179626464844
313.2500 29.5089626312256
314.6800 31.362907409668
314.9812 21.5234832763672
315.1100 39.1410369873047
318.7600 11.8805732727051
325.0400 10.0623588562012
325.9300 11.4700384140015
326.7200 14.3929491043091
327.1200 21.1898555755615
327.9000 23.0313949584961
328.3200 10.7167444229126
328.7900 17.9556274414063
329.0000 23.2826614379883
329.8900 8.71360492706299
330.0500 25.9337463378906
330.8200 35.9409141540527
331.0400 12.4631576538086
332.9800 10.212947845459
334.7300 11.8781547546387
334.9500 20.6359977722168
336.8100 21.4407558441162
344.8200 12.9418811798096
344.9300 8.73438549041748
345.9000 18.9641265869141
346.1100 37.6546211242676
347.0800 9.18152332305908
348.6900 48.6324996948242
348.9400 33.6968116760254
349.1700 8.46823024749756
349.9800 10.5220155715942
350.5900 8.63836002349854
350.8000 21.5297374725342
352.9600 29.3200168609619
354.1200 9.02468109130859
354.9100 10.2966251373291
355.0500 19.4079322814941
362.8300 12.9735689163208
365.0100 10.6625843048096
366.7800 18.6006240844727
367.0000 30.192850112915
369.1800 11.6172142028809
370.8500 11.7884044647217
371.8900 12.5795431137085
372.8200 10.3726615905762
377.0200 12.8404588699341
400.8100 9.42931365966797
462.8300 8.8200101852417
