#"+EI Scan (rt: 1.985-2.078 min, 17 scans) R3M1.D  Subtract "
#Point,X(Thompsons),Y(Counts)
41.0515 3420.0439453125
42.0900 543.856140136719
43.0655 4321.07275390625
43.9862 286.008666992188
44.7700 29.6672840118408
44.9600 454.442657470703
46.0100 60.8675384521484
47.0500 261.259429931641
48.7800 53.2971954345703
49.0700 56.1850891113281
49.8000 11.307915687561
50.1300 26.3889598846436
51.0268 328.539001464844
51.9300 103.683044433594
52.0500 152.799194335938
52.1400 11.877326965332
53.0300 853.792175292969
53.8400 32.4426612854004
53.9692 129.002975463867
54.1540 67.7276000976563
55.0670 3128.25830078125
56.0200 987.86376953125
57.0542 746.057861328125
58.0700 297.553131103516
58.2000 37.0914916992188
59.0449 432.5029296875
59.9400 392.664245605469
60.8600 73.213508605957
61.8000 76.7026443481445
62.0300 144.170974731445
62.9800 585.840087890625
63.9200 185.707015991211
64.9400 264.466247558594
65.1600 77.2491607666016
66.0000 250.19905090332
66.1800 44.9708366394043
67.0135 753.272766113281
67.1400 84.193000793457
68.0086 97.6004333496094
68.1700 19.117639541626
69.0460 816.507568359375
69.9900 253.428085327148
71.0500 210.094909667969
71.1500 51.8761749267578
71.9900 398.370025634766
72.1900 46.5218048095703
73.9800 748.378845214844
75.0110 512.004760742188
75.9500 133.253616333008
76.0415 196.489013671875
76.2000 79.7483367919922
77.0300 987.7080078125
78.0394 1023.7392578125
79.0173 474.548828125
79.9200 126.833671569824
80.0314 117.070892333984
80.1500 25.5713653564453
81.0118 2032.19189453125
81.9200 205.938629150391
82.1500 117.634796142578
83.0485 2281.875
83.8400 50.4085464477539
83.9611 124.814651489258
84.1461 16.6068878173828
84.9500 498.873779296875
85.1100 173.720474243164
85.8000 35.8005714416504
85.9500 169.353057861328
86.7700 10.6496181488037
87.0000 211.339309692383
87.1000 57.7594909667969
87.9200 137.768920898438
88.0100 443.63037109375
88.1400 31.0647220611572
88.9700 49.98583984375
89.0400 1427.24755859375
90.0300 908.653503417969
90.9600 716.604675292969
91.0768 154.367614746094
91.6800 32.7201461791992
91.8900 87.6653137207031
92.1000 118.72412109375
92.2100 43.7208709716797
93.1200 99.9922180175781
93.7961 5.45096588134766
94.0400 132.06169128418
94.8200 25.9188346862793
95.0600 397.824096679688
95.7600 47.8009414672852
95.9411 26.6284790039063
96.1300 304.066131591797
97.0520 1257.79931640625
97.1500 45.9480285644531
97.9700 126.229377746582
98.0816 75.5213775634766
98.2300 49.6083068847656
98.8800 96.6553497314453
99.0800 225.653335571289
99.8300 62.743221282959
100.0200 166.687698364258
101.0000 857.19287109375
101.9979 1585.07446289063
102.1200 142.118881225586
102.8700 58.1433944702148
102.9728 558.902587890625
103.0800 284.983337402344
103.9100 213.235076904297
104.6000 32.1845741271973
104.8200 192.103057861328
104.9729 142.90087890625
105.5600 24.4873390197754
105.8200 84.4002075195313
106.1500 19.0013580322266
106.2800 8.85403728485107
107.1800 33.603931427002
107.8500 96.333625793457
108.1300 106.46745300293
109.0239 1951.01000976563
109.9826 258.026306152344
110.1200 67.4624404907227
111.1600 125.722213745117
111.6100 40.1238403320313
112.2300 74.2765884399414
112.3800 112.377487182617
112.5500 259.984619140625
112.6600 282.212463378906
112.8300 111.093002319336
112.9400 330.43896484375
113.9300 147.772659301758
114.0390 476.617858886719
115.0000 2416.96069335938
115.0687 246.460571289063
116.0213 4281.341796875
116.1200 168.06071472168
117.0200 2795.287109375
117.7900 27.1927146911621
117.9400 484.2919921875
118.7200 25.686056137085
118.9000 70.9224090576172
119.1400 174.594512939453
119.2600 127.040023803711
119.7700 38.4981346130371
119.9000 132.641830444336
120.0605 216.374313354492
120.7400 125.231491088867
120.9100 172.85124206543
121.1100 48.3268241882324
121.8400 43.270938873291
122.0200 92.8160629272461
122.1700 21.5938758850098
122.6300 25.6131992340088
122.9800 507.905334472656
123.1300 56.0317039489746
123.8400 65.9920425415039
125.0100 201.848388671875
125.0800 212.484237670898
125.7900 28.280969619751
125.9600 273.269409179688
126.9900 227.051025390625
127.0900 318.10791015625
128.0366 2451.88671875
129.0241 3400.70068359375
129.9200 142.957717895508
130.0378 3812.49926757813
130.1045 632.146789550781
130.8900 48.8781204223633
130.9980 1185.58178710938
131.9500 234.4716796875
132.0400 404.563262939453
132.8200 141.375305175781
133.0400 480.796752929688
133.9500 106.960746765137
134.1400 36.5704917907715
134.3200 10.3499526977539
135.0700 322.544372558594
135.8000 27.2201728820801
136.1300 304.126007080078
137.0100 1071.919921875
138.9803 65.388427734375
139.8700 300.046905517578
140.0081 183.746063232422
140.9555 439.490478515625
141.9200 74.4631576538086
142.0140 82.2091674804688
142.1100 218.480056762695
143.0251 2144.2080078125
144.0342 11919.1455078125
145.0167 2218.74072265625
145.9300 262.33642578125
146.6300 14.7352390289307
146.8100 81.0821075439453
147.1100 83.1419372558594
147.5900 12.4986038208008
147.7100 13.2451963424683
147.8400 84.2789840698242
147.9500 53.033203125
148.1300 62.2845687866211
148.7500 25.3572177886963
148.8800 146.191162109375
149.1100 63.1556739807129
149.8000 19.9903011322021
149.9100 74.9272003173828
150.0600 81.814582824707
150.2200 34.1969718933105
150.9849 50.7117309570313
151.0800 316.967010498047
151.9243 11.3233489990234
152.0500 623.040466308594
152.9800 812.501281738281
153.1200 93.4487686157227
153.9100 186.281707763672
154.0546 798.959045410156
155.0009 729.9462890625
156.0300 1681.20837402344
157.0000 1896.384765625
157.9624 348.218505859375
158.0600 662.818481445313
158.9749 571.8828125
159.8900 291.119720458984
160.9400 936.289794921875
161.7200 23.2996368408203
161.9197 90.7193908691406
162.0300 18.1819934844971
162.2200 10.6589002609253
162.7200 48.3386077880859
163.9500 175.734497070313
164.0600 68.6870269775391
164.2700 11.8838500976563
164.8000 66.5504608154297
165.0400 376.235290527344
165.9672 256.387573242188
166.0900 291.213562011719
167.0134 3000.6484375
167.8700 32.8187141418457
168.0215 1440.79919433594
168.1500 89.3293914794922
168.9800 672.252990722656
169.0800 83.8082427978516
169.7700 25.6227989196777
169.9800 313.658996582031
170.0548 748.752868652344
170.9400 646.138244628906
171.0500 467.073974609375
171.7800 21.5724029541016
171.9000 138.848007202148
172.0391 413.152465820313
172.9600 164.297378540039
173.1000 82.0594711303711
174.0323 703.013549804688
174.1900 11.8408088684082
174.8000 34.2457580566406
174.9000 71.959716796875
175.0062 116.918655395508
175.8700 28.096529006958
176.0300 80.8015899658203
176.8400 108.836860656738
177.0838 16.2941284179688
177.8000 21.2871131896973
177.9700 232.080825805664
178.0800 139.024475097656
179.0600 281.510955810547
179.8000 33.7903747558594
179.9900 94.4295959472656
180.0800 1541.1572265625
181.0300 1941.16125488281
181.8000 18.3711700439453
182.0400 1291.54992675781
182.1236 467.663208007813
183.0315 545.842834472656
183.9600 441.102111816406
184.0497 132.284362792969
184.9483 592.451843261719
185.0600 150.597686767578
185.9800 152.225158691406
186.0800 476.177307128906
187.0700 1892.8232421875
187.8200 18.4141521453857
187.9300 151.496154785156
188.0600 363.246826171875
188.1900 14.7660217285156
188.6900 20.6916961669922
188.8700 219.869277954102
189.1000 47.4139976501465
189.9000 56.8853073120117
190.0200 90.0599746704102
190.9755 585.552917480469
191.1100 67.0030822753906
191.7400 18.9012432098389
191.9444 12.6474456787109
192.0500 168.458587646484
192.9766 536.01220703125
194.0466 517.252563476563
194.1300 172.01301574707
195.0400 865.371337890625
196.0100 336.441772460938
196.0900 1267.4482421875
196.8100 94.2458724975586
197.0400 743.243469238281
197.8800 121.784210205078
197.9727 64.2765197753906
198.0800 341.999755859375
199.9800 231.601791381836
200.9646 151.495361328125
201.6100 9.67060375213623
201.7900 42.4864120483398
201.9400 149.709518432617
202.0700 63.5191345214844
202.8000 146.260330200195
202.9200 335.090209960938
203.8300 162.584487915039
204.2000 34.8650131225586
204.7900 232.804260253906
205.8300 134.966827392578
206.0400 122.740837097168
207.0500 811.122375488281
207.7400 21.2151031494141
207.9300 70.9888076782227
208.1200 291.220458984375
209.0700 390.147125244141
209.9497 292.146850585938
210.0771 1380.97998046875
210.9902 313.8515625
212.0500 1719.22741699219
213.0700 803.852600097656
214.1200 43278.91015625
215.0300 8091.326171875
215.9931 1069.359375
216.9600 574.101318359375
218.0100 308.545989990234
218.9452 296.021484375
219.8921 367.910705566406
219.9955 21.3690795898438
221.8600 135.924301147461
222.1200 200.169128417969
222.7600 157.687866210938
223.0800 46.0288009643555
223.9100 47.9223480224609
224.0308 145.645294189453
224.1200 640.255615234375
225.0600 501.393676757813
225.1500 122.265380859375
225.8300 18.7730960845947
226.1100 179.708770751953
226.2600 35.8555679321289
226.8600 56.3439826965332
227.0085 37.3388977050781
227.1300 62.608283996582
227.9500 130.075286865234
228.1900 693.887878417969
229.1003 2811.44946289063
230.0400 408.874572753906
230.1200 549.851379394531
231.0100 252.73649597168
231.1300 124.388572692871
232.0500 85.9746246337891
233.0000 570.84765625
233.9900 843.528259277344
234.8600 121.732597351074
235.1100 65.6260986328125
235.6600 38.8970603942871
235.8300 102.872657775879
236.0300 109.256393432617
236.9749 199.251953125
238.0873 3395.18408203125
239.0400 1423.95178222656
239.1600 149.6494140625
239.9500 73.1387939453125
240.0700 141.31330871582
240.2100 115.195739746094
241.0000 343.016662597656
241.8500 38.5497932434082
241.9800 128.029861450195
242.1100 45.0940399169922
242.8100 17.8871574401855
243.9200 14.1040592193604
244.8347 3.83946990966797
244.9300 249.671188354492
245.1100 13.720666885376
245.9700 33.6850624084473
246.0900 21.3401203155518
246.6800 9.69481086730957
246.8200 32.5790405273438
247.0700 76.859001159668
247.1700 11.1611032485962
247.7600 9.49868106842041
248.5900 13.1670227050781
249.0800 336.463745117188
250.0200 58.3896903991699
250.1700 33.7375793457031
250.9100 95.5132522583008
251.1200 103.895553588867
251.2500 9.06652164459229
251.9600 80.5932388305664
252.1682 3759.78588867188
253.1200 2007.84375
253.2200 113.375564575195
254.0500 351.126586914063
254.1224 724.6259765625
254.9400 62.2870101928711
255.0700 259.831695556641
255.1543 45.3432159423828
255.8300 21.2455234527588
256.0300 71.5342178344727
256.7100 63.8880767822266
256.9400 234.669143676758
257.9500 36.3234901428223
258.8300 78.6021957397461
258.9363 10.0623016357422
259.1000 17.0590476989746
259.8500 27.6985397338867
260.6400 16.7649459838867
260.8100 64.8547210693359
260.9254 3.42352294921875
261.6900 15.8325700759888
261.9000 39.9815902709961
262.0500 15.9518737792969
262.6900 24.5498313903809
262.8700 92.4836730957031
263.9100 23.4846477508545
264.6700 9.90478420257568
264.8200 14.011736869812
265.0000 48.416919708252
265.9400 32.41455078125
266.1500 91.3501052856445
267.0300 143.560440063477
267.1600 19.3801345825195
267.9900 82.4865112304688
268.1200 1197.12219238281
268.2111 293.946807861328
269.0107 156.149993896484
269.1300 376.851135253906
269.8300 11.1588554382324
270.0100 35.777042388916
270.1375 1020.37493896484
271.0300 636.842102050781
271.8100 21.091817855835
271.9665 42.9010314941406
272.6600 25.1575889587402
272.9400 801.349365234375
273.1800 28.6976833343506
273.7100 10.9654245376587
273.8853 5.15396118164063
274.1000 45.6574211120605
274.8300 197.038833618164
276.0100 92.1583633422852
276.7500 87.5750961303711
277.9200 79.0386276245117
278.0900 65.4773178100586
278.2900 19.899435043335
278.7000 166.753341674805
279.0000 169.310241699219
279.3800 11.815393447876
279.7900 52.4703788757324
280.0300 164.823013305664
281.0700 661.130187988281
281.1700 40.3394660949707
281.9400 46.623233795166
282.0869 27.2156524658203
282.2800 21.9776153564453
282.8600 89.52783203125
283.0000 66.1527099609375
283.2700 29.575382232666
283.8400 10.1291913986206
283.9700 9.4501256942749
285.0700 173.108535766602
285.6300 22.3328227996826
285.8300 59.5432243347168
286.7700 16.4438056945801
286.9400 292.414703369141
287.8000 12.8803224563599
288.0200 54.6227607727051
288.9537 551.12060546875
289.9344 110.389984130859
290.0900 27.1869316101074
290.9100 455.822143554688
291.9836 10.1725769042969
293.0500 467.587982177734
293.8000 129.476776123047
293.9700 79.4999084472656
294.1182 213.119995117188
294.2300 113.260612487793
294.9600 600.561096191406
296.1800 6861.2451171875
297.1000 1999.18151855469
297.7400 35.3171806335449
297.9952 5.27316284179688
298.1200 74.1750946044922
298.7100 16.2822017669678
298.8700 86.513069152832
298.9500 93.040901184082
300.8631 30.9390563964844
301.0100 42.8906593322754
302.0200 10.6799945831299
302.9200 26.0013008117676
303.0300 182.855880737305
304.0700 9.53687763214111
304.8100 29.2598190307617
304.9900 52.114616394043
306.6800 26.9005279541016
307.0300 205.165664672852
307.8200 12.0713119506836
307.9400 11.8238849639893
308.9700 62.8906593322754
309.0700 8.87007331848145
309.1900 33.2139739990234
309.8400 9.95166873931885
310.2200 198.994216918945
310.3200 9.41644859313965
311.1874 4365.5888671875
311.9400 29.4964389801025
312.1600 1231.59790039063
313.0800 93.4725646972656
313.2000 234.735000610352
314.0400 9.97138118743896
314.7300 19.9846630096436
314.8500 67.6227416992188
314.9900 94.9567031860352
315.1500 10.4662895202637
316.9200 16.28537940979
319.0200 18.9182529449463
319.1600 27.799633026123
319.7900 9.65574741363525
323.0600 9.26545524597168
324.0100 26.3641662597656
324.9200 17.8102436065674
325.2200 13.0229969024658
326.0500 11.2741861343384
326.9700 35.300479888916
328.0700 59.1489639282227
328.2100 69.3870010375977
328.9100 29.0233612060547
329.1500 10.5797786712646
330.0900 44.5989151000977
330.6700 14.2594900131226
332.8400 33.6933937072754
332.9600 26.3814563751221
334.7900 24.0703659057617
334.9300 41.1781578063965
337.0900 9.99459552764893
345.0900 11.0361423492432
346.0500 25.978048324585
346.2300 27.2156829833984
347.2500 8.99580574035645
347.4400 13.5420999526978
348.8500 79.9144821166992
348.9600 68.9565658569336
350.9000 10.9956865310669
351.9100 9.34076309204102
352.6500 9.60028266906738
352.9600 112.530044555664
354.9200 10.5568752288818
355.0300 12.4369888305664
355.9200 9.51139163970947
356.9900 11.1728353500366
358.9000 9.47146987915039
366.9600 70.396858215332
367.1300 11.5605897903442
368.0000 9.60901927947998
371.1200 13.6822853088379
374.9500 12.5348062515259
388.8500 10.7774496078491
391.8300 9.47481155395508
401.1400 29.7980842590332
401.7400 12.0064859390259
429.0100 9.22170257568359
