#"+EI Scan (rt: 1.985-2.072 min, 16 scans) R5M1.D  Subtract "
#Point,X(Thompsons),Y(Counts)
40.0800 567.329040527344
41.0672 3565.59814453125
42.0279 382.501708984375
42.1400 69.859001159668
43.0650 4288.333984375
43.9954 303.386596679688
45.9700 31.7393741607666
46.0700 29.468542098999
47.0700 160.518295288086
48.9200 56.1440162658691
49.0700 60.5598907470703
49.8500 48.3974494934082
49.9700 137.42529296875
51.8800 125.348304748535
51.9800 85.9872894287109
52.1200 94.9020156860352
52.9400 196.790374755859
53.0327 1011.10632324219
53.9900 259.428894042969
54.1200 187.235717773438
55.0341 3599.07446289063
56.0800 552.188110351563
56.9200 140.817840576172
57.0543 654.23828125
58.0630 109.740020751953
59.0400 675.771484375
60.0400 395.348571777344
60.9400 171.743408203125
61.8500 79.9883346557617
62.0600 131.431228637695
62.8400 79.0116882324219
62.9931 163.025207519531
63.9100 130.255844116211
64.0618 66.2740936279297
64.2500 10.2037048339844
64.9200 339.019622802734
65.0593 198.25260925293
65.9800 240.447250366211
66.0843 32.6813201904297
66.2100 28.9320087432861
67.0488 1120.18420410156
68.1200 178.831390380859
69.0340 920.294189453125
69.8800 73.6408081054688
70.1300 241.609436035156
71.0500 369.346984863281
71.9100 113.047729492188
72.0538 61.0615234375
72.1600 35.1090621948242
73.0407 734.93701171875
74.0805 291.198181152344
75.0017 286.012817382813
75.8300 33.8969039916992
75.9700 244.783843994141
76.2700 35.9068908691406
77.0390 3258.501953125
78.0446 1419.16943359375
79.0117 870.827880859375
80.0600 200.289093017578
80.3000 36.8160018920898
80.9981 1539.578125
81.8800 132.064224243164
82.0000 772.232055664063
83.0322 2092.505859375
83.9300 292.621826171875
84.9200 56.5503845214844
85.1800 63.5198135375977
85.7400 20.1636199951172
86.0300 126.339080810547
86.1600 12.1450128555298
86.9200 116.046340942383
87.0380 69.1271667480469
87.1700 79.0108032226563
87.9761 128.300231933594
88.0600 372.804534912109
89.0400 2926.02319335938
89.8300 36.9301071166992
89.9463 354.455322265625
90.0800 275.640625
90.7500 56.3814697265625
90.9400 655.995727539063
91.6400 19.1515960693359
91.9683 38.1254577636719
92.7900 30.1983909606934
92.9800 465.445861816406
93.8200 42.0174789428711
93.9800 99.1275405883789
95.0700 398.803497314453
96.0000 649.875305175781
96.1700 104.845153808594
97.0524 1202.037109375
97.8700 40.7516899108887
98.1500 55.8157424926758
99.0100 281.567474365234
99.3100 43.7636756896973
99.8700 29.0745239257813
100.0000 101.421356201172
100.9653 28.9975738525391
101.0500 792.866882324219
102.0200 2534.48779296875
102.9500 901.67431640625
103.0188 426.58935546875
103.9900 580.800170898438
104.1500 33.0844917297363
105.0000 379.068695068359
105.1700 75.2952880859375
105.6300 48.0703239440918
105.7300 48.6322441101074
106.0747 18.6842041015625
106.2900 18.9090442657471
106.8700 284.097717285156
107.8000 29.9647026062012
107.9759 25.6043395996094
108.1100 52.6529960632324
108.2700 25.6061344146729
109.0200 1464.6650390625
109.7800 52.3603782653809
110.0235 84.1754150390625
110.1400 63.2288055419922
110.8500 45.0320701599121
111.0800 384.425842285156
111.2000 79.1014633178711
111.4000 38.7853965759277
111.6800 55.5011749267578
111.7900 18.4797668457031
112.1600 66.1986312866211
112.3800 217.798156738281
112.5800 204.723510742188
112.6900 44.5630226135254
112.8311 490.181213378906
113.1400 37.5961761474609
113.9607 289.840393066406
114.0500 517.916687011719
115.0266 3142.37353515625
116.0200 4642.00927734375
117.0014 2109.37133789063
118.0058 557.621948242188
118.8600 239.351531982422
119.1200 168.163848876953
119.4200 29.7548961639404
119.9000 180.592422485352
120.1400 140.692977905273
120.8000 232.176193237305
120.9800 259.10400390625
121.6800 16.2793445587158
122.0700 122.567817687988
122.8800 202.153411865234
123.9026 77.516716003418
125.0200 865.947265625
125.1300 65.0028991699219
125.7700 34.0082511901855
126.1100 161.014617919922
126.7300 33.8211135864258
126.9651 25.052978515625
127.0600 547.520629882813
128.0220 2532.89404296875
128.9100 107.993835449219
129.0367 3731.142578125
130.0463 5210.3994140625
130.9913 1620.98278808594
131.8400 48.7393989562988
132.0031 443.183471679688
132.0900 105.044563293457
132.9746 81.9349365234375
133.0500 455.165771484375
133.6800 24.3565216064453
133.9616 20.2509002685547
134.9400 1295.56762695313
135.9600 170.655166625977
137.0003 2075.931640625
137.9000 226.389770507813
139.0013 998.7373046875
139.7300 15.9940433502197
140.0300 556.625122070313
140.9200 1011.53271484375
141.9400 308.636901855469
142.0463 115.004333496094
143.0089 2678.39599609375
144.0263 14011.015625
145.0256 2858.13232421875
145.8529 79.7802352905273
146.0000 170.209136962891
146.0692 69.127555847168
146.9400 80.3105773925781
147.8100 49.4007034301758
148.0500 76.7589416503906
148.1500 39.6569213867188
148.3600 31.0358734130859
149.0200 211.658279418945
149.1300 37.8779335021973
149.7900 24.446834564209
149.9400 44.1714897155762
150.0900 46.9977569580078
150.2000 32.2169647216797
150.8900 277.917938232422
151.0108 161.436889648438
151.8400 123.757934570313
151.9795 134.545745849609
152.1200 140.537109375
152.9100 42.6765213012695
153.0437 90.7801513671875
153.7600 16.588623046875
154.0200 1569.21655273438
154.1600 122.050338745117
155.0146 676.150390625
156.0500 1478.64184570313
157.0100 1173.7822265625
157.9900 952.63232421875
158.9749 595.4365234375
159.9600 158.45458984375
161.7300 13.4402084350586
161.9241 49.1209945678711
162.0500 32.5815811157227
162.9000 1311.0908203125
163.7300 31.1307125091553
163.9900 160.118286132813
164.1600 14.6028833389282
164.9773 112.847839355469
165.0900 186.604843139648
165.6000 15.2051954269409
165.8900 50.3217544555664
166.0551 530.770202636719
167.0163 3200.72900390625
168.0146 2146.75244140625
168.0900 139.529815673828
168.8600 149.901779174805
169.0071 126.165710449219
169.0800 248.955963134766
169.9100 87.4108734130859
170.0469 693.136108398438
171.0200 393.096984863281
172.0000 447.876800537109
172.9848 5.45263671875
173.0900 153.842803955078
174.0363 957.386779785156
174.9700 346.078979492188
175.1300 43.9861869812012
175.8900 17.1336421966553
176.0300 100.766891479492
176.1200 30.1624183654785
176.8500 187.926330566406
177.8200 64.3195648193359
177.9573 45.6660308837891
178.0890 105.807388305664
178.6700 13.3616647720337
178.9933 258.419769287109
179.1700 72.9406509399414
179.8100 45.33203125
179.9996 384.585174560547
180.0900 1346.21960449219
181.0229 1467.25939941406
182.0684 1733.03735351563
182.7400 112.234260559082
182.8500 18.9973602294922
183.0128 284.676635742188
183.6900 20.3207912445068
183.9189 86.72509765625
184.0600 598.025756835938
185.0200 844.774475097656
185.9400 70.7096099853516
186.0500 529.644409179688
187.0669 1417.4677734375
188.0200 510.198974609375
188.1200 592.718383789063
188.8200 71.5731506347656
188.9200 262.453765869141
189.2600 14.5501489639282
189.6900 19.8151111602783
189.8600 32.9836730957031
190.0200 41.5509719848633
190.1400 32.2433013916016
190.9700 1192.6572265625
191.8800 299.144134521484
192.0787 7.48918151855469
192.9900 1191.39208984375
193.8700 105.376266479492
193.9936 455.281677246094
194.1200 230.761077880859
194.9633 460.443115234375
195.8800 78.8948211669922
196.0419 1660.61254882813
196.9863 971.1630859375
197.9283 284.787414550781
198.0467 263.969543457031
198.8300 290.757873535156
199.7100 10.8911838531494
199.9700 380.909637451172
200.7900 129.300872802734
201.0500 178.844604492188
201.6000 12.8298683166504
201.8400 107.822158813477
202.0700 19.8041458129883
202.9412 27.162841796875
203.0800 31.1061363220215
203.9000 172.800201416016
204.0200 236.603057861328
204.5400 17.9246120452881
204.9300 426.923675537109
205.7600 12.1405601501465
205.8700 87.9803619384766
206.0400 182.887451171875
206.1900 21.2636966705322
206.3100 10.1609659194946
207.1000 117.69881439209
208.0410 229.803955078125
208.2100 30.8759365081787
208.9700 281.968383789063
209.0663 194.11897277832
209.7400 16.3899574279785
209.9300 56.7490577697754
210.0666 1668.52465820313
211.0000 202.900390625
212.0800 986.82080078125
212.9500 191.23371887207
214.1182 49629.1484375
215.0033 7589.62890625
215.9828 1119.18408203125
217.8228 68.4146881103516
217.9200 143.715042114258
219.9900 540.514038085938
220.7700 127.991668701172
220.9326 122.868835449219
221.8500 42.132396697998
221.9600 170.368438720703
222.0600 137.775283813477
222.2600 17.9254779815674
222.9635 314.845672607422
223.0500 96.4180450439453
223.9680 48.8103790283203
224.0700 1023.23236083984
224.9727 238.741455078125
225.0837 108.498962402344
226.0700 168.908782958984
226.3400 23.2434005737305
226.9700 208.665313720703
227.0600 147.914505004883
227.9400 108.664031982422
228.1400 651.9501953125
228.2246 107.138214111328
229.1226 3089.80932617188
230.0600 540.446655273438
230.1700 438.611938476563
230.8000 35.3680000305176
231.0600 286.165557861328
231.2200 19.6902904510498
231.8700 22.5162506103516
231.9900 148.763275146484
232.9951 293.4306640625
234.9000 438.965179443359
235.7200 36.5154304504395
235.9900 139.704895019531
236.9800 1089.41796875
237.9865 763.043212890625
238.1012 2492.04125976563
239.0008 302.268798828125
239.1200 207.453353881836
239.6500 14.1705083847046
240.1000 349.524200439453
240.7900 61.3682518005371
240.9129 420.281402587891
241.6800 26.7108020782471
242.0141 47.0111999511719
243.0000 235.713760375977
243.1800 63.5076675415039
243.8400 20.7011547088623
244.0200 26.5564422607422
244.7800 26.159969329834
244.8869 38.6282348632813
245.1600 65.971565246582
245.9100 42.3664093017578
247.0000 227.21809387207
248.1600 9.99174022674561
248.7800 39.0298881530762
249.0200 319.514190673828
249.1200 65.5771789550781
249.8500 16.1212272644043
249.9600 43.5110816955566
250.1400 68.3920822143555
250.3900 12.0770263671875
251.0000 102.373359680176
251.1100 101.218864440918
251.9800 57.2468414306641
252.1567 4970.34033203125
253.1500 2470.06494140625
253.8900 18.9763050079346
254.0000 96.2330703735352
254.1336 1188.75451660156
254.7500 24.5552215576172
254.9700 316.452301025391
255.9500 14.9297885894775
256.0541 51.4970016479492
256.8200 164.157775878906
256.9665 1.18462371826172
258.7700 37.5930442810059
258.8700 119.447967529297
260.6100 13.1774988174438
260.8500 159.975738525391
261.7900 26.4632530212402
261.9200 9.79456806182861
262.1000 11.3356685638428
262.9000 35.7590599060059
263.0293 20.2402496337891
264.1300 39.8240966796875
265.1400 11.9661245346069
265.8500 26.4998741149902
266.0700 23.5350570678711
266.1300 68.4647598266602
266.3800 14.5832481384277
266.8100 10.2534027099609
267.1000 36.0654754638672
267.9300 65.1802444458008
268.1239 1874.11437988281
268.8900 68.2177352905273
269.0314 290.303344726563
270.0000 184.317047119141
270.1200 549.211669921875
270.1700 461.511291503906
270.9000 75.4110336303711
271.0100 935.33154296875
271.9600 276.459381103516
272.3600 21.1578330993652
273.0600 183.144500732422
273.7500 73.6225051879883
273.8800 48.8594169616699
274.8100 118.005798339844
274.9018 259.599853515625
275.7600 15.1002025604248
275.9207 87.7014083862305
276.0200 53.6098251342773
277.0000 366.222717285156
277.7500 76.8151321411133
278.0000 78.9367523193359
278.1100 94.5960388183594
278.7800 42.3206596374512
278.9100 283.255523681641
279.7200 43.817943572998
280.1700 61.5890884399414
280.7200 31.321216583252
281.0103 308.179504394531
281.1700 179.736282348633
281.9298 4.24469757080078
282.0800 61.1601943969727
282.1600 164.573394775391
282.8000 35.3434638977051
282.9186 73.7704391479492
283.1400 34.1057891845703
283.8000 28.4866485595703
284.1800 13.0469484329224
285.0377 352.996459960938
285.8200 57.1618041992188
286.3700 11.014196395874
286.7800 19.3955993652344
286.9300 284.312408447266
287.2000 44.492546081543
287.9100 10.7283134460449
288.0100 47.9367141723633
288.9651 130.791259765625
289.6200 35.9565925598145
289.8900 193.482757568359
290.1400 35.0874900817871
290.8900 211.440216064453
291.8800 84.3002777099609
292.9404 289.05419921875
294.0500 759.161804199219
294.1800 296.736663818359
294.9400 312.707214355469
295.0057 206.463928222656
296.0728 109.517517089844
296.1853 6601.71923828125
297.0463 842.565002441406
297.1500 1234.41796875
297.9000 59.8125534057617
298.0200 236.312759399414
298.1700 117.752883911133
298.4100 25.161075592041
298.7700 99.640625
299.1500 11.4278898239136
299.6300 14.3505506515503
299.8900 12.7821245193481
300.0300 14.3183250427246
300.6200 16.8531475067139
300.7400 24.3809051513672
300.8800 71.7769165039063
302.2400 26.3251857757568
302.8800 34.9448432922363
303.0000 105.206954956055
303.1200 59.234317779541
303.2600 12.4465017318726
303.9700 9.95032691955566
306.7100 16.7426624298096
306.8600 74.9453353881836
307.7900 16.2987518310547
307.9000 37.4580993652344
308.0800 12.3568410873413
308.7900 9.95593547821045
309.0600 58.3752937316895
309.9000 13.7173299789429
310.0400 145.935989379883
310.1700 69.9023895263672
310.4100 11.5000839233398
311.2000 5460.83984375
311.9200 21.6739978790283
312.2000 1197.99755859375
312.8900 20.5806560516357
313.0400 76.8213882446289
313.1400 201.514114379883
313.2700 36.7864151000977
314.7200 35.9870643615723
314.9900 23.3968162536621
315.1500 23.1012573242188
315.8900 10.0186014175415
318.7900 13.0411968231201
319.0800 11.1897554397583
319.8100 13.2506942749023
323.2000 10.0664510726929
325.0600 20.4710674285889
326.1600 14.0854215621948
326.6300 12.2694835662842
326.9100 31.4015922546387
327.0700 30.1869201660156
328.2700 43.0277862548828
328.6900 27.6957359313965
329.0100 53.4130020141602
330.0200 9.84198474884033
330.1600 48.8826637268066
330.7000 10.2780914306641
332.0700 12.4457988739014
332.9400 24.9942626953125
334.9100 36.0855293273926
335.3000 9.63795280456543
335.7900 10.7290267944336
339.0200 11.3188610076904
341.1000 10.7438688278198
344.8300 55.6923027038574
345.9700 33.5982894897461
346.1500 33.1467819213867
346.3100 11.437105178833
347.1100 38.3959732055664
347.2600 13.406325340271
348.5700 11.6127920150757
348.8700 191.794692993164
350.1800 16.0647964477539
350.8900 22.9596061706543
351.0000 34.1950340270996
352.7400 28.8697662353516
353.1100 11.486177444458
354.8700 12.3500413894653
356.9100 10.5748071670532
357.0200 13.7130107879639
357.9300 12.6587696075439
358.7400 9.88907241821289
358.9500 16.9293556213379
362.9300 11.3734884262085
365.0700 13.6701383590698
366.7500 9.44613933563232
367.1900 11.0666799545288
368.7500 9.91394996643066
368.9900 11.078387260437
371.0500 38.7324142456055
377.1500 10.7525939941406
379.2200 15.4591913223267
381.1400 11.5356388092041
384.9700 12.6157732009888
386.9800 15.4249601364136
400.9300 34.5788879394531
402.1700 10.219654083252
408.6400 13.0586986541748
409.0200 20.9804515838623
410.9100 11.3357801437378
