#"+EI Scan (rt: 2.649-2.708 min, 11 scans) R3M1.D  Subtract "
#Point,X(Thompsons),Y(Counts)
40.1264 3656.91943359375
41.0801 96799.703125
42.0901 12635.9736328125
43.0889 68850.609375
44.0465 7141.76904296875
45.0226 3442.02880859375
45.9300 61.2470703125
46.0700 1177.89916992188
47.0600 17572.888671875
48.0100 364.434844970703
48.1400 61.2665863037109
48.9900 281.737182617188
49.1800 14.7090873718262
50.0409 2797.27758789063
51.0383 8320.400390625
51.9600 265.855316162109
52.0488 3014.64379882813
53.0531 8365.6494140625
53.9153 17.1572875976563
54.0818 5243.587890625
55.0794 46821.86328125
56.0604 17400.3828125
57.0644 3597.61547851563
58.0965 2121.75244140625
59.0400 58330.6953125
59.9900 1225.54858398438
60.0635 3011.58276367188
61.0500 5249.69580078125
62.0200 7957.39794921875
63.0303 11467.8857421875
64.0000 5238.33203125
65.0400 5706.1435546875
66.0200 1922.26647949219
67.0592 9085.4970703125
68.0800 3704.54321289063
68.1300 1059.44714355469
69.0802 69119.84375
70.0800 19361.26953125
71.0705 31614.380859375
72.0799 11587.025390625
73.0477 11470.486328125
73.9200 68.5593566894531
74.0402 2407.43603515625
75.0410 11627.7021484375
76.0388 25175.412109375
77.0381 43838.79296875
78.0300 10033.966796875
79.0200 2428.29956054688
79.8300 55.2468910217285
80.0700 434.363555908203
80.1600 227.28564453125
80.9961 2223.087890625
82.0500 2258.87817382813
83.0500 5851.21435546875
84.0600 2016.82116699219
84.2600 85.6270065307617
84.9700 534.743896484375
85.0502 1979.8037109375
86.0200 2800.8291015625
87.0500 9430.0400390625
88.0396 66080.4609375
89.0303 53121.0234375
90.0300 122815.8046875
91.0368 17207.19140625
92.0400 4701.50146484375
92.9400 419.853149414063
93.0656 684.329895019531
93.5600 185.340911865234
93.6900 217.690673828125
93.8600 53.1129760742188
94.0900 173.28840637207
94.9703 19.3484802246094
95.0600 578.135986328125
95.9904 188.646301269531
96.0721 514.577087402344
97.0300 760.846740722656
97.1022 580.388732910156
98.0400 16700.12890625
98.9711 901.708374023438
99.0500 1041.306640625
99.8396 29.4748458862305
99.9800 935.686950683594
100.1200 965.646484375
101.0454 5324.982421875
102.0400 65404
103.0398 184028.703125
104.0398 57891.25390625
105.0392 6819.62939453125
105.8900 120.77099609375
106.0100 100.66480255127
106.1700 331.266662597656
106.4900 482.723724365234
106.6000 664.579711914063
106.7300 942.316162109375
106.9600 329.079132080078
107.0900 294.56689453125
107.2200 176.078552246094
107.3700 228.460052490234
107.5400 594.857727050781
107.6500 112.407791137695
108.1100 54.9365844726563
109.0135 2928.837890625
109.9300 328.107238769531
110.0637 147.782257080078
110.9821 276.843933105469
111.1200 102.563400268555
111.5500 17.6237678527832
111.8600 117.991477966309
111.9700 97.9362869262695
112.1300 96.561408996582
112.2600 18.211519241333
113.3100 172.330108642578
113.5100 266.027221679688
113.7000 3145.86352539063
113.9073 1282.79553222656
114.0800 503.005950927734
115.0252 8826.2041015625
116.0378 15476.810546875
117.0387 63853.41796875
118.0406 20674.00390625
119.0159 5774.9931640625
120.0400 732.727661132813
120.1300 292.394226074219
121.0100 4112.63037109375
121.7100 14.3828010559082
121.8500 158.081298828125
122.0200 360.001007080078
122.7100 69.7637405395508
122.9316 170.718933105469
123.0600 189.269104003906
123.8500 59.8088111877441
124.0200 205.307357788086
124.3100 19.9811744689941
124.9600 851.124267578125
125.8200 75.4485855102539
125.9300 321.944061279297
126.0700 316.239288330078
126.2400 26.7285232543945
127.0270 2827.05810546875
128.0509 10050.2978515625
129.0400 83586.5
130.0600 109912.328125
131.0500 246580.140625
132.0500 32716.0234375
133.0023 2883.625
133.1300 544.24072265625
133.7458 23.5822525024414
134.0589 597.971496582031
134.2000 72.6897888183594
134.9708 1699.73425292969
135.8500 116.792381286621
136.1500 113.728591918945
137.0163 16961.90625
137.9931 2030.908203125
138.9865 1224.671875
139.9254 205.700805664063
140.0500 842.082763671875
140.2100 52.1377716064453
140.9914 2285.29125976563
142.0523 6896.150390625
143.0585 19341.787109375
144.0586 41887.8515625
145.0400 705938.3125
146.0300 70488.8515625
147.0314 6084.02685546875
148.0085 1053.89782714844
149.0400 2541.4970703125
149.6700 21.3316612243652
149.8500 106.166259765625
149.9800 343.411437988281
150.9100 145.489761352539
151.0086 703.009155273438
152.0800 1330.30859375
152.8700 279.012023925781
152.9737 575.580627441406
154.0432 2118.66650390625
155.0130 7694.11376953125
156.0460 10174.9892578125
157.0600 21472.9375
158.0492 35030.51171875
159.0029 16105.564453125
160.0126 3980.66357421875
160.9735 875.491394042969
161.0500 10471.3740234375
162.0017 766.715148925781
162.0600 903.393371582031
162.9500 905.23046875
163.9300 312.160369873047
164.1092 16.7365646362305
165.0300 1206.61108398438
166.0300 534.878967285156
166.9842 1619.23559570313
168.0555 2937.32177734375
169.0666 5199.76806640625
170.0500 5165.53955078125
171.0690 32845.078125
172.0500 11215.501953125
173.0500 5476.38818359375
174.0600 103527.3671875
175.0600 66257.15625
176.0500 8857.3935546875
177.0399 77780.21875
178.0400 8403.111328125
178.9900 1021.08813476563
180.0100 409.893646240234
180.1500 27.2266407012939
180.9524 1043.24877929688
181.0400 368.449981689453
182.0100 678.343811035156
182.1300 638.842346191406
183.0366 574.489013671875
183.1000 2529.13427734375
183.9879 892.43310546875
184.0700 4458.68017578125
185.0800 27743.236328125
186.0700 9865.6240234375
187.0596 4335.95361328125
187.7900 18.9650821685791
187.9767 282.418182373047
188.0900 1172.3447265625
189.0500 1253.67248535156
189.8000 90.4619140625
189.9491 10.3241729736328
190.0600 221.779235839844
190.9534 811.947692871094
192.0000 356.465942382813
192.0900 93.1423263549805
193.0500 690.197692871094
193.9800 265.655395507813
194.1200 61.5899696350098
194.9577 961.9013671875
196.0182 769.064697265625
196.9558 1237.27551269531
197.1000 260.602020263672
198.0200 1341.54772949219
198.1015 136.187286376953
199.0600 9450.8134765625
200.0000 327.275360107422
200.0900 5216.2578125
201.0300 4904.79248046875
201.9700 754.169311523438
202.0800 805.3505859375
203.0812 6511.689453125
203.9634 206.860198974609
204.0600 1498.87390136719
204.2400 58.5357551574707
205.0252 1590.30395507813
205.1200 2878.95654296875
206.0200 158.667434692383
206.1100 1475.44702148438
207.0700 1246.64440917969
207.7200 18.9667854309082
207.9622 160.943206787109
208.0780 235.283660888672
208.9600 588.12255859375
210.0575 1396.96948242188
211.0073 3825.8310546875
212.0665 3557.55541992188
213.1000 109799.9765625
214.0991 19491.498046875
215.0132 12353.5830078125
216.0389 5023.69970703125
216.9767 1919.46716308594
218.0200 682.431579589844
218.1600 107.847389221191
218.9623 2171.64477539063
220.1000 1646.50158691406
220.9555 285.690185546875
221.0600 762.395141601563
221.9200 185.280075073242
222.0700 60.077449798584
222.1800 126.468673706055
222.3800 43.7837562561035
222.8642 134.936645507813
222.9900 374.829711914063
223.8100 74.6466979980469
223.9735 27.6186981201172
224.1800 76.0718460083008
224.4300 47.8050422668457
224.5600 27.9139213562012
224.8000 37.0497703552246
224.9048 17.3490447998047
225.0300 357.886596679688
225.2500 42.6592140197754
225.8700 33.0878257751465
226.0000 384.405090332031
226.1200 350.432342529297
227.0132 868.77490234375
228.1196 10566.619140625
229.0954 4232.79443359375
230.0900 1731.64099121094
230.1600 747.888732910156
231.1000 19196.572265625
232.1120 9523.2509765625
233.1200 1484427.625
234.1200 223767.546875
235.1096 20203.3984375
236.0260 567.681030273438
236.1200 563.173156738281
236.9800 5585.87890625
237.9581 1794.58630371094
238.9440 1101.11376953125
239.9585 356.552154541016
240.0500 121.06950378418
240.8500 103.604621887207
240.9912 514.661865234375
241.7600 37.2018547058105
241.9435 36.5835952758789
242.0900 680.823181152344
242.7500 53.4867515563965
242.9372 16.7179183959961
243.1000 446.920379638672
243.2400 18.5271320343018
244.0500 1025.27124023438
244.6800 20.979621887207
244.9386 226.215728759766
245.0800 605.087158203125
246.1200 6644.09423828125
247.1400 8615.39453125
248.1300 4515.837890625
249.1398 159636.265625
250.1300 24176.595703125
250.8900 48.2741432189941
251.1200 1921.25158691406
251.8500 34.355640411377
251.9700 83.4801712036133
252.0800 157.595596313477
252.2400 17.120584487915
252.6400 52.2117576599121
252.7900 33.928768157959
252.9500 376.526550292969
253.8600 18.7201061248779
253.9800 117.100540161133
254.1000 154.019866943359
254.9900 273.361419677734
255.9600 182.007537841797
256.1200 664.329956054688
257.0300 347.4697265625
257.9100 125.295074462891
258.1100 132.584106445313
258.3300 38.8269538879395
258.9444 300.280883789063
259.1200 91.5094985961914
259.8900 22.4230289459229
260.1300 1336.03662109375
261.1700 11707.0791015625
262.0400 88.113395690918
262.1600 2596.4130859375
262.9300 146.230850219727
263.0800 414.757690429688
263.5700 21.0019874572754
264.0300 45.4630126953125
264.8000 57.2438201904297
265.0200 203.349075317383
265.1500 22.6026344299316
265.3000 27.498010635376
265.9000 39.9491996765137
266.0400 55.9877281188965
266.7200 20.1139678955078
266.8500 48.4573402404785
266.9900 239.605133056641
267.1800 36.3766174316406
267.9400 67.7861785888672
268.0800 109.239738464355
268.2200 40.1386833190918
268.7200 66.1706390380859
268.9100 343.051055908203
269.9840 39.186637878418
270.1500 925.671142578125
270.9662 451.06689453125
271.1200 150.823089599609
271.9590 127.666961669922
272.1100 1155.23352050781
272.9296 36.4170227050781
273.0400 931.056213378906
274.1100 2699.8974609375
275.0072 1276.55773925781
275.8400 18.9154834747314
275.9900 613.447631835938
276.7400 69.0984802246094
276.9043 420.543792724609
277.7500 64.5562438964844
278.0500 249.160446166992
278.2000 190.964492797852
278.7700 29.900842666626
278.9000 142.156005859375
279.0400 157.115005493164
279.1600 31.5220050811768
279.8100 39.5637359619141
280.2900 15.5342063903809
280.9500 442.251281738281
281.0900 100.554862976074
281.8800 80.9252624511719
281.9800 125.356002807617
282.0800 99.1432647705078
282.2900 14.3582515716553
282.8300 107.213874816895
282.9300 97.1095275878906
283.1400 105.237846374512
283.2600 49.0643653869629
284.1200 1007.70782470703
284.1800 1961.08740234375
284.9800 504.814544677734
285.0726 640.216186523438
286.1397 2557.74267578125
287.0127 287.521423339844
287.1291 1002.78558349609
288.1500 12270.5458984375
289.1100 20003.349609375
290.1041 3813.1552734375
291.0100 1198.15515136719
291.8400 35.804271697998
292.0545 124.208717346191
292.9516 1127.24487304688
293.9261 140.772216796875
294.0700 97.926383972168
294.7800 108.117599487305
294.9482 254.319152832031
295.0600 183.466369628906
295.7900 51.1076927185059
295.9800 265.470703125
296.1500 89.839241027832
296.7500 80.9052963256836
296.9091 123.622314453125
297.0000 439.138641357422
297.6800 18.2326736450195
297.9100 159.969192504883
298.0400 158.521713256836
298.2200 53.3946266174316
298.6700 22.6392154693604
298.8300 107.081657409668
299.0200 178.947662353516
299.1300 76.7855987548828
299.9000 155.217742919922
300.0800 260.655364990234
300.2300 102.43285369873
300.9200 214.014144897461
301.0500 238.187759399414
301.2300 63.564510345459
302.1400 3108.1328125
303.1500 4341.36328125
304.1899 638664.625
305.1900 126310.3671875
306.2000 13607.6181640625
307.0000 86.4695358276367
307.1600 1332.12438964844
307.9400 46.4518623352051
308.0500 15.6892642974854
308.1900 52.5168952941895
308.9400 25.2842082977295
309.0400 107.918533325195
309.1900 52.3961791992188
309.9000 19.049280166626
310.1000 14.8588495254517
310.8624 27.4572982788086
310.9800 137.846939086914
312.0500 74.7483444213867
312.1900 33.9458465576172
313.0500 23.3028011322021
314.9500 275.239929199219
315.0900 114.275321960449
315.2700 21.5529823303223
316.1196 5350.67919921875
317.1400 1497.31042480469
317.9300 47.44482421875
318.0300 255.166244506836
318.1900 41.790355682373
319.0000 109.792976379395
319.1600 140.364196777344
320.1600 13965.04296875
321.1500 12923.6904296875
322.1400 1994.68249511719
322.2200 155.726928710938
322.9700 180.526840209961
323.1200 192.140182495117
323.9900 16.1532669067383
324.1900 66.9187774658203
324.8800 71.7521896362305
325.1500 38.459056854248
326.1700 44.0586433410645
326.8300 19.0523796081543
327.0000 63.3210182189941
327.1500 46.8001098632813
327.9800 63.5165367126465
328.1600 147.022445678711
329.0100 61.444019317627
329.1000 84.7109069824219
329.9500 159.944396972656
330.1100 987.810180664063
330.2200 183.844665527344
331.1700 7417.93798828125
332.0800 639.083923339844
332.1700 2987.39135742188
333.1300 730.057861328125
333.2300 38.5191383361816
333.9600 64.567985534668
334.1600 372.703155517578
334.2700 261.573364257813
334.8300 24.936164855957
335.0300 53.685245513916
335.1600 104.789192199707
335.8300 16.0266284942627
336.8300 13.9277582168579
337.2200 18.1040267944336
342.0500 149.156890869141
342.1800 71.7437286376953
342.3000 76.0866012573242
343.0600 346.490631103516
343.2200 223.128921508789
344.0400 91.9683837890625
344.1400 142.193832397461
344.3200 41.8620338439941
344.8500 69.0244827270508
345.0400 403.804962158203
345.1900 130.636276245117
346.0000 101.62385559082
346.1400 566.111999511719
346.9100 23.0651187896729
347.0500 148.438003540039
347.2500 66.0279922485352
347.9900 52.1847915649414
348.1600 1694.95739746094
348.9939 141.212799072266
349.1500 300.749603271484
349.5400 37.8208084106445
350.0300 188.275329589844
350.7500 61.4398765563965
350.9500 14.7807159423828
351.1200 85.0771179199219
352.0100 32.5706748962402
352.8000 79.1744155883789
352.9500 136.923522949219
353.0294 5.02850341796875
353.9200 36.0491180419922
354.7900 16.8963851928711
354.9900 85.1308898925781
355.8400 17.5092716217041
356.0200 14.424822807312
356.6900 14.3420963287354
356.9200 32.2903671264648
358.7200 13.9189949035645
358.9100 62.4176139831543
360.9400 17.4042835235596
361.1200 15.5339021682739
361.2400 15.4618434906006
361.9600 71.1524124145508
362.1900 1446.84094238281
363.2100 75317.296875
364.2100 16638.599609375
365.0800 270.070281982422
365.2000 2057.6728515625
366.0000 91.376823425293
366.2100 124.326469421387
367.0300 221.121002197266
367.9900 22.3805065155029
369.0300 50.2886619567871
370.8200 96.5503692626953
370.9200 60.871826171875
371.0500 48.6114768981934
372.7900 15.9410715103149
374.8600 43.2825126647949
377.1600 52.3854866027832
378.1100 14.1485939025879
380.8300 18.1724472045898
381.0000 41.6739616394043
386.9100 23.491455078125
395.2900 14.7450189590454
400.9300 78.0500717163086
401.1400 20.3156089782715
407.0300 32.2596092224121
459.0700 16.5627021789551
460.9000 14.9457244873047
482.9700 18.0518665313721
539.0100 13.9910125732422
