#"+EI Scan (rt: 2.649-2.708 min, 11 scans) R2M1.D  Subtract "
#Point,X(Thompsons),Y(Counts)
40.1100 4105.35595703125
41.0791 93925.3046875
42.0887 11945.8681640625
43.1000 67852.1484375
44.0281 6873.60205078125
45.0250 3299.5126953125
45.8300 37.2174301147461
46.0600 1028.50219726563
46.2300 50.8524017333984
47.0590 16794.63671875
48.0100 507.6875
48.9100 225.275863647461
49.0000 107.583541870117
50.0391 2559.16333007813
51.0400 8307.6416015625
51.8533 82.8502731323242
52.0300 3129.73901367188
53.0500 8075.4873046875
54.0767 5132.37109375
55.0787 44884.87890625
56.0665 16226.2099609375
57.0460 3457.67993164063
58.0000 92.117546081543
58.1044 1776.3759765625
59.0400 55529.078125
60.0300 4450.94873046875
61.0394 5057.953125
62.0395 7779.30029296875
63.0300 10885.818359375
64.0100 5250.01123046875
64.9725 1145.97778320313
65.0300 4592.24072265625
66.0026 1380.60595703125
66.1400 54.4054679870605
67.0589 8933.341796875
68.0778 4783.716796875
69.0798 67299.8671875
70.0784 18186.296875
71.0789 30694.75390625
72.0904 12054.482421875
73.0578 11063.93359375
74.0000 513.547729492188
74.0700 2184.57666015625
75.0400 10774.2705078125
76.0401 25429.830078125
77.0400 43867.421875
78.0256 10137.626953125
79.0272 2196.30639648438
79.9080 187.084136962891
80.0287 209.165679931641
80.1300 132.949417114258
80.9889 2620.2158203125
82.0036 1924.13452148438
83.0375 5295.18408203125
84.0400 1754.05310058594
84.1161 24.3379516601563
84.9904 881.423278808594
85.0800 1756.46020507813
85.9275 280.825469970703
86.0300 2517.0810546875
87.0400 9355.439453125
88.0302 65214.64453125
89.0411 52522.46484375
90.0300 120383.5703125
91.0279 16824.4765625
91.9900 738.594055175781
92.0500 2908.7802734375
93.0600 1006.26470947266
93.1608 50.7956848144531
93.4500 171.091659545898
93.6200 34.85302734375
93.8400 200.689315795898
94.0500 238.547592163086
94.1600 41.2624053955078
94.9800 687.276611328125
95.0800 333.551971435547
95.8000 31.7947559356689
95.9324 252.185363769531
96.0300 672.020446777344
96.2500 41.4715270996094
96.8600 66.0766906738281
97.0195 900.9453125
98.0592 15868.17578125
99.0721 1939.50415039063
99.9200 690.438720703125
100.0850 1083.05676269531
101.0423 5559.41455078125
102.0397 64563.47265625
103.0396 182300.90625
104.0399 57543.0859375
105.0406 6835.41650390625
105.9300 176.756454467773
106.0200 229.117034912109
106.3200 488.054321289063
106.4900 621.118347167969
106.6400 1034.51062011719
106.9400 95.182243347168
107.1400 555.203369140625
107.4200 594.945373535156
107.6100 340.3330078125
107.7800 52.0640602111816
108.1600 170.509155273438
108.9947 2115.154296875
109.9100 322.199432373047
110.9600 787.267578125
111.1000 108.74348449707
111.9400 83.347541809082
112.0700 112.969734191895
112.1800 130.197616577148
113.6618 2410.12255859375
113.8200 1748.72802734375
113.9400 598.028991699219
114.0592 442.752838134766
114.9737 1517.17578125
115.0500 7132.873046875
116.0282 15088.8232421875
117.0300 64846.7890625
118.0508 20963.798828125
119.0386 5940.33203125
119.9222 264.902923583984
120.0300 457.951385498047
120.1300 287.976257324219
120.9900 1742.04821777344
121.0500 2023.64208984375
121.8200 69.0418014526367
122.0200 634.187744140625
123.0212 521.186218261719
123.7300 41.7861061096191
123.8700 89.605094909668
124.0400 192.216064453125
124.2200 38.1683959960938
124.7200 39.1313209533691
125.0200 350.812469482422
125.8100 43.5045013427734
125.9700 364.131805419922
126.0800 340.146301269531
126.9833 1730.06860351563
127.0652 1262.93395996094
128.0454 9438.8447265625
129.0303 80348.859375
130.0597 107585.1953125
131.0499 243993.046875
132.0500 32693.73828125
133.0134 3294.67114257813
133.8900 143.682067871094
134.0545 272.846008300781
134.2200 290.182830810547
134.9600 2339.75610351563
136.0400 595.751159667969
137.0100 15244.810546875
138.0026 1732.81884765625
138.9932 1402.8369140625
139.9600 692.012878417969
140.1000 410.525787353516
140.2600 46.5816612243652
141.0000 2079.98364257813
142.0600 7295.67822265625
143.0570 19317.05078125
144.0588 40846.9921875
145.0400 706046.1875
146.0400 69092.0234375
147.0400 6180.685546875
147.8300 96.4317626953125
148.0000 1060.11572265625
148.1200 120.202568054199
148.9918 1038.84033203125
149.0700 1480.76232910156
149.8400 22.2652912139893
149.9700 270.695434570313
150.0900 101.031074523926
150.9226 164.255798339844
151.0415 774.94140625
151.9000 90.1748275756836
152.0900 1526.017578125
152.9005 24.000732421875
153.0400 674.290588378906
154.0240 2024.46032714844
155.0249 6738.65283203125
156.0364 9650.7314453125
157.0561 20070.947265625
158.0600 34221.62890625
158.9962 14845.6171875
160.0017 3664.92529296875
161.0425 11552.8076171875
161.9656 418.742126464844
162.0700 1078.70581054688
162.9561 1161.85864257813
163.8200 101.353950500488
164.0700 212.989349365234
164.9673 764.557006835938
165.1100 144.049850463867
165.9300 180.759338378906
166.0500 391.942169189453
166.9276 179.47802734375
167.0400 1339.93225097656
167.9300 190.816802978516
168.0559 2599.36987304688
169.0500 5153.9150390625
169.8600 77.2387466430664
170.0479 4858.28076171875
170.1500 75.9195251464844
171.0600 32513.17578125
172.0486 11237.9931640625
173.0600 5306.62353515625
174.0699 103398.2421875
175.0602 65476.44140625
176.0703 8953.71484375
177.0400 76990.4140625
178.0400 8436.00390625
178.9498 6.76763916015625
179.0200 572.165832519531
179.8800 44.6294631958008
180.0200 370.599945068359
181.0600 931.051147460938
181.9700 421.048522949219
182.0700 784.139099121094
183.0614 3194.34033203125
184.0579 5585.35205078125
185.0800 27859.857421875
186.0700 9684.357421875
187.0700 4616.57177734375
187.7700 82.2606048583984
187.9500 142.321838378906
188.0700 1281.74987792969
189.0300 1402.01574707031
189.8000 28.8061294555664
189.9697 117.778106689453
190.1500 209.580764770508
190.9675 468.437347412109
191.9200 355.916015625
192.9136 285.626068115234
193.9400 263.245422363281
194.1800 69.4517593383789
194.9400 2279.04125976563
196.0300 814.026306152344
196.9034 509.183074951172
197.0249 1091.30932617188
197.8500 103.805732727051
197.9400 460.659362792969
198.0459 703.225280761719
199.0700 9144.4677734375
200.0700 5744.568359375
201.0300 5022.888671875
201.8416 7.99600982666016
202.0200 1071.77331542969
202.1300 341.276336669922
203.0582 6976.62646484375
203.9900 306.90478515625
204.0800 1469.53405761719
205.0100 135.39892578125
205.1197 4640.29443359375
205.7400 48.5543594360352
205.9367 105.242935180664
206.0700 960.289001464844
206.1700 387.10302734375
207.0600 2218.22143554688
207.9300 174.933502197266
208.0262 148.403305053711
208.1983 41.3276824951172
208.9000 188.231552124023
209.0370 467.913208007813
209.8900 117.830276489258
210.0400 1184.49462890625
210.1600 197.457366943359
211.0045 3481.30078125
212.0507 3001.47631835938
213.1000 107711.6328125
214.1000 18649.076171875
215.0065 11978.56640625
215.9700 1073.94189453125
216.0490 4166.4658203125
216.9966 1909.39782714844
217.9300 304.587127685547
217.9939 166.055999755859
218.9523 2348.24096679688
220.0700 1547.57824707031
220.1500 598.265991210938
220.7800 101.910934448242
220.9344 553.174560546875
221.0700 294.342803955078
221.9800 185.509948730469
222.1100 117.502449035645
222.3000 26.7285823822021
222.9900 680.421691894531
223.9100 172.33967590332
224.2100 38.3984718322754
224.3500 24.9280414581299
224.5000 32.2951583862305
224.9733 341.380737304688
225.1700 135.903305053711
225.7900 20.2909202575684
225.9600 210.025939941406
226.1400 605.442626953125
226.8800 100.309326171875
227.0438 509.269897460938
228.1000 10460.068359375
229.0731 4790.58544921875
229.7100 81.2200088500977
230.0100 392.463470458984
230.1086 1841.46081542969
231.1091 18181.083984375
232.1054 9236.74609375
233.1194 1437275
234.1200 225883.140625
235.1100 19459.673828125
235.9900 306.531860351563
236.0563 1215.556640625
236.9721 4333.7265625
237.9465 1239.57739257813
239.0200 497.659942626953
239.7000 25.1267108917236
239.9437 270.472534179688
240.0900 189.353942871094
240.9023 193.80615234375
241.0400 602.128479003906
241.9534 75.8836288452148
242.1200 531.380065917969
242.8200 58.9354133605957
242.9900 422.477325439453
243.1500 133.694549560547
243.8700 51.3638572692871
243.9900 481.956237792969
244.0900 750.5537109375
244.9300 302.883636474609
245.0663 650.327758789063
246.1100 6512.341796875
247.1500 8776.5810546875
248.1400 4325.787109375
249.1298 156730.078125
250.1296 24610.99609375
251.1100 2372.78881835938
252.0100 111.224807739258
252.1200 76.3488464355469
252.2000 102.899192810059
252.8100 164.219665527344
252.9623 212.072830200195
253.1700 61.0177612304688
253.8900 65.9788284301758
254.0000 137.309616088867
254.1800 111.29997253418
254.8300 39.0566444396973
255.0700 155.592468261719
255.8300 72.4177551269531
256.0400 516.94677734375
256.1600 625.898254394531
256.9000 229.984603881836
257.0100 98.7938537597656
257.1400 307.952880859375
257.8100 18.2832851409912
257.9400 91.163948059082
258.0300 255.811965942383
258.1400 45.4427337646484
258.6800 25.5256404876709
258.8139 18.4802169799805
258.9600 112.437934875488
259.0797 77.0073089599609
259.2100 26.9881649017334
259.8800 43.6183891296387
260.1000 870.363525390625
260.2000 305.784301757813
261.1700 12032.7431640625
261.8900 39.9841232299805
262.0000 56.7495727539063
262.1100 561.809631347656
262.1600 1989.52624511719
262.8200 25.3648929595947
263.0900 503.404266357422
263.7600 36.3026695251465
263.9700 82.149299621582
264.9300 219.001373291016
265.0900 49.1988296508789
266.1200 79.0624465942383
266.2300 39.943172454834
266.9518 30.5789947509766
267.0600 97.8631362915039
267.7200 23.6795063018799
268.0200 112.66771697998
268.2000 38.794979095459
268.8204 53.2935028076172
269.0019 291.998016357422
269.1200 66.9698257446289
269.9600 149.409088134766
270.1500 798.651916503906
270.9919 987.227294921875
272.1036 1445.66772460938
272.9300 254.046829223633
273.0115 335.229614257813
274.1000 1607.19458007813
274.1900 1156.92565917969
275.0900 1655.74658203125
275.8700 123.783302307129
275.9849 167.965957641602
276.1700 134.395980834961
277.0022 243.154556274414
277.1000 189.175109863281
278.0082 36.2196350097656
278.1200 204.180267333984
278.6100 15.2072515487671
278.8577 67.4587554931641
278.9800 357.699188232422
279.1800 21.4954700469971
279.9000 91.4341125488281
280.0300 96.9424285888672
280.8600 26.7401485443115
280.9700 240.374496459961
281.0900 223.214050292969
281.9800 114.305229187012
282.1100 154.129745483398
282.2600 143.601776123047
282.4800 21.606897354126
282.7200 14.2156620025635
282.8448 6.37380981445313
283.1000 160.237518310547
284.1217 1100.83654785156
284.2000 1800.63940429688
285.0937 1405.29565429688
286.1300 2363.4111328125
287.0768 1109.11389160156
287.1900 208.004898071289
288.1400 12545.15234375
289.1000 19642.033203125
290.1092 3608.3447265625
290.9337 94.3181762695313
291.0700 609.962646484375
291.8900 69.7924728393555
292.0200 95.837028503418
292.1800 209.896789550781
292.9627 1776.60180664063
293.9690 650.618469238281
294.9900 295.427093505859
295.0700 325.543334960938
295.8400 35.5844879150391
295.9600 145.396438598633
296.2000 29.1734066009521
296.7300 128.085922241211
296.9532 227.725219726563
297.1000 82.168586730957
297.9600 233.648620605469
298.0700 84.7753219604492
298.6900 39.4319114685059
298.8300 163.25080871582
299.0400 31.5623722076416
299.1800 81.5141067504883
299.8500 96.4502944946289
300.0200 183.913879394531
300.1483 157.520751953125
300.7000 16.7668380737305
300.8090 39.1945648193359
301.0200 147.639465332031
301.1300 153.472915649414
301.2100 97.440673828125
302.1500 3283.01318359375
303.1600 4334.044921875
304.1900 649736.9375
305.2100 129355.25
306.2000 13905.4091796875
307.1600 1161.42138671875
307.2400 162.740539550781
307.9600 54.9965438842773
308.0500 37.9729957580566
308.1900 88.8778915405273
309.0100 76.7969284057617
309.9900 48.9355430603027
310.7000 33.8016090393066
311.1000 223.505950927734
311.9000 16.6304244995117
312.0300 104.367744445801
313.0700 61.5003395080566
313.7900 23.3805770874023
313.8900 52.3957290649414
314.1500 15.1014165878296
314.3500 15.0251884460449
314.7400 123.844139099121
314.9100 39.0372467041016
315.0400 100.085914611816
315.1800 138.044021606445
316.1494 5308.931640625
316.9900 199.594833374023
317.1400 998.853332519531
317.2700 235.334945678711
318.0300 71.6550369262695
318.1700 225.401702880859
318.3700 18.191385269165
318.9600 127.217704772949
319.0800 160.641754150391
320.1500 14049.0009765625
321.1500 13388.5
322.0400 317.547393798828
322.1600 1943.138671875
322.2800 44.6456871032715
322.9900 175.45654296875
323.1200 209.086517333984
323.9400 17.3209762573242
324.8700 25.0776863098145
325.0600 20.6784629821777
326.9100 35.0779266357422
327.0700 51.038875579834
327.2000 47.2666778564453
327.8500 20.9767036437988
327.9700 77.9661026000977
328.1300 34.4501647949219
328.3200 26.9389114379883
328.6500 17.5497417449951
328.8300 67.1184539794922
328.9900 55.8373260498047
329.1500 74.1695022583008
330.0100 187.500427246094
330.1500 1146.60107421875
331.1500 6895.01220703125
332.1400 3695.46337890625
332.9445 131.169921875
333.1000 478.792388916016
333.2500 132.243713378906
334.0700 148.362564086914
334.1900 308.248992919922
334.2900 216.433853149414
335.0100 180.709869384766
335.1700 104.773971557617
338.7700 33.5185508728027
340.8900 32.5238456726074
341.9300 49.1902732849121
342.1100 55.0623550415039
342.2200 228.618347167969
342.8600 48.5556640625
343.0000 83.4980850219727
343.1900 609.611206054688
343.3300 16.7594966888428
343.9100 48.2629852294922
344.0500 124.273750305176
344.2600 77.9923095703125
344.7400 14.4270935058594
345.0100 424.289642333984
345.2300 68.0214157104492
346.0000 129.224411010742
346.1100 270.139678955078
346.2300 308.085174560547
346.5600 15.8746948242188
346.8100 17.7558364868164
346.9400 72.4760284423828
347.1500 152.754898071289
347.2700 17.0926113128662
348.0400 141.69123840332
348.1700 1652.21887207031
348.8300 96.0176239013672
349.0080 427.913452148438
349.1600 25.8154182434082
349.8100 40.8617210388184
349.9300 72.1461639404297
350.1000 21.3852672576904
350.8600 42.6149635314941
351.0000 64.6646728515625
351.1800 22.5797119140625
352.7100 28.9042530059814
352.8200 94.9782943725586
352.9649 1.07467651367188
353.8400 30.7929859161377
354.8800 89.0678253173828
355.0500 57.3937759399414
357.1100 68.8228073120117
358.9000 92.6093978881836
361.0400 19.9704971313477
361.1400 56.5866432189941
362.1800 1412.83728027344
363.2199 76853.9375
364.2200 16842.029296875
365.1100 161.719284057617
365.2300 2305.32592773438
366.1300 176.687362670898
366.3100 127.40251159668
367.0400 134.364898681641
367.2300 22.9892349243164
367.6500 13.7282829284668
367.7800 13.8736639022827
370.9200 116.577072143555
372.9200 17.5370693206787
374.9100 15.7655735015869
375.1500 17.23512840271
376.9200 17.6419410705566
377.0600 16.6488704681396
378.9000 15.4059944152832
381.0400 38.1497840881348
384.0600 21.6352977752686
401.0400 59.7057762145996
401.1900 69.8917541503906
401.8500 20.5983352661133
405.8400 17.4898338317871
407.0100 17.1423377990723
408.7700 16.3673000335693
409.0100 40.5566368103027
411.0300 15.0764131546021
414.8400 13.9153299331665
426.3000 14.3357267379761
444.9300 14.6291570663452
546.0200 14.6328439712524
