#"+EI Scan (rt: 3.856-3.920 min, 12 scans) R4M1.D  Subtract "
#Point,X(Thompsons),Y(Counts)
40.0987 1801.935546875
41.0693 45182.2890625
42.1097 3948.08544921875
43.0800 93020.0234375
44.0332 3416.92504882813
44.9727 161.792053222656
45.0873 95.1626586914063
45.9310 36.1014671325684
46.8809 28.5048370361328
48.7900 16.8709316253662
49.0039 168.984069824219
49.1406 6.545241355896
49.9622 145.161010742188
50.0400 2828.88403320313
51.0461 10229.3154296875
52.0499 8326.5185546875
53.0488 5317.07275390625
53.9400 122.813957214355
54.0987 905.59326171875
55.0582 15409.4541015625
56.0284 993.652526855469
56.9787 411.890319824219
57.0626 389.326843261719
57.9559 46.8296203613281
58.0900 150.9443359375
59.0241 3570.271484375
60.0833 111.957458496094
60.2400 21.719518661499
60.9500 240.518249511719
61.0700 361.732543945313
62.0292 4329.03759765625
63.0191 11935.857421875
64.0094 4368.9833984375
65.0396 22869.279296875
65.8344 14.6415596008301
66.0000 1197.12951660156
66.0610 815.41259765625
67.0249 1549.93798828125
67.9670 282.844360351563
68.1361 117.673461914063
69.0469 3326.466796875
69.6600 15.0540504455566
69.8698 1.03238677978516
69.9800 309.525573730469
70.1349 155.037017822266
70.3400 63.9128723144531
71.0569 3080.97900390625
71.8321 2.20360660552979
72.0305 379.504516601563
73.0336 2726.89379882813
74.0387 2559.15551757813
75.0077 6219.42431640625
75.0700 3120.69653320313
76.0407 12006.84765625
77.0370 46116.55859375
78.0477 68332.8671875
79.0314 6754.2841796875
79.8292 20.7154998779297
79.9882 490.718505859375
80.1176 127.628402709961
80.9943 1194.1923828125
81.8657 268.6005859375
82.0006 319.735412597656
82.1434 15.2705383300781
82.2500 206.467819213867
82.6400 148.682540893555
82.7700 162.48210144043
83.0157 20.2849884033203
83.1700 197.602294921875
83.4800 515.619873046875
83.5800 233.81867980957
83.8432 58.9379272460938
84.0345 25.0367126464844
84.2300 25.4924488067627
84.8692 22.2303009033203
84.9961 268.508178710938
85.8680 25.3886184692383
86.0000 607.232238769531
86.0900 306.63037109375
87.0178 3899.78930664063
88.0400 11858.1513671875
89.0395 63102.69921875
90.0489 15207.669921875
91.0497 76476.296875
92.0104 2844.38696289063
92.0705 4276.32958984375
92.9039 269.467956542969
93.0432 437.873474121094
93.6800 53.2528076171875
94.0844 163.326629638672
94.8158 128.838104248047
94.9700 769.525512695313
95.0618 507.67431640625
95.3800 275.467437744141
95.5523 565.15869140625
95.8200 31.7899684906006
96.1683 302.339782714844
96.2900 81.1686782836914
96.5100 264.826263427734
96.8073 323.892700195313
96.9500 19.6508636474609
97.0647 117.783081054688
97.3400 38.9376029968262
98.0206 714.993286132813
98.8561 221.886489868164
98.9217 306.983276367188
99.1100 110.269165039063
99.8500 129.93473815918
100.0500 1084.00158691406
100.2000 28.9911193847656
101.0500 19948.443359375
102.0399 58609.4296875
103.0401 21360.18359375
103.9688 634.820007324219
104.0603 2451.61743164063
105.0291 4959.33740234375
106.0300 8652.77734375
106.8530 113.726028442383
107.0075 2128.85327148438
107.1785 80.4545288085938
107.7700 85.1233215332031
108.0144 119.506637573242
108.5300 316.244293212891
108.7800 344.488403320313
108.9872 1990.70751953125
109.6600 213.161682128906
109.7863 36.8268623352051
109.8967 124.51985168457
110.0228 199.700592041016
110.1880 31.2545509338379
110.4900 98.0930252075195
110.7641 25.2941436767578
110.9993 562.956298828125
111.0800 248.520950317383
111.5600 26.5977458953857
111.7000 166.489517211914
111.9193 14.1351680755615
112.0700 249.891708374023
113.0373 2369.62548828125
113.9620 261.492065429688
114.0400 17192.16015625
115.0299 65280.015625
116.0400 146348.859375
117.0370 19091.0234375
118.1086 1866.44116210938
118.3300 2129.41186523438
118.5300 1590.56494140625
118.6800 1673.5791015625
118.8973 40.0451965332031
119.9907 39.2151336669922
120.1592 1868.08532714844
121.0600 102183.890625
122.0501 9724.7861328125
123.0205 1623.63623046875
123.7606 368.541076660156
123.9900 44.1298484802246
124.5700 1817.26770019531
124.6900 775.177185058594
124.8091 222.891021728516
125.5700 9947.6357421875
126.1600 124.22957611084
127.0369 6182.61572265625
128.0400 47274.328125
129.0400 104665.546875
130.0400 48329.8515625
131.0193 5070.35400390625
131.0800 1279.51391601563
131.7968 53.0412254333496
132.0189 987.936157226563
132.1594 320.647399902344
132.5500 76.9102096557617
133.0318 1729.68969726563
133.8916 126.372482299805
134.0146 477.388977050781
135.0167 2588.59814453125
135.9056 55.1733016967773
136.0123 192.054565429688
136.1056 222.518997192383
137.0100 12423.16796875
138.0066 1787.5947265625
139.0000 2086.47119140625
139.1200 4154.90625
139.7994 2591.65283203125
139.9795 2563.2255859375
140.1270 149.867141723633
140.9986 4772.46044921875
142.0497 6425.07666015625
143.0500 56722.61328125
144.0400 460279.34375
145.0395 47212.87109375
145.9426 147.31755065918
146.0505 3374.02001953125
147.0400 460.618377685547
147.9615 673.08837890625
148.0600 918.738342285156
148.8029 54.6206436157227
148.9745 344.435485839844
149.1600 167.825836181641
150.0171 1520.13037109375
151.0066 3250.6640625
151.0882 338.096862792969
152.0493 3955.69995117188
153.0486 2423.68920898438
154.0496 8870.466796875
155.0210 5121.5595703125
156.0598 11165.10546875
157.0479 17950.0390625
158.0498 15252.5625
158.9830 5544.67333984375
159.9468 781.859619140625
160.9485 857.940795898438
161.8904 41.1356735229492
162.0216 416.261932373047
162.1800 14.4909286499023
162.9968 3785.1416015625
164.0400 3700.63671875
165.0600 8169.42236328125
166.0600 3337.04907226563
167.0600 3529.17993164063
167.1400 2646.39721679688
167.6700 2452.52124023438
167.8616 2109.5546875
168.0893 452.370330810547
168.8659 4.89366912841797
169.0345 1624.658203125
170.0600 17501.220703125
171.0290 3898.79736328125
172.0100 1350.05114746094
172.8794 58.8453140258789
173.0116 257.443359375
173.8000 108.415946960449
173.9400 220.224868774414
174.0983 202.882247924805
174.3300 17.6976127624512
174.9300 375.768768310547
175.0510 476.798767089844
175.9340 113.628646850586
176.0500 4321.6982421875
177.0397 3214.7998046875
177.8672 99.4120025634766
178.0501 4363.51025390625
179.0700 1832.42077636719
180.0600 2432.35864257813
180.8914 70.876220703125
181.0160 967.56201171875
182.0296 610.420715332031
182.0900 544.657897949219
182.7400 54.8663482666016
182.8994 146.911956787109
183.0530 466.600860595703
184.0799 6478.8125
185.0400 3268.1845703125
185.9445 60.1481513977051
186.0797 2947.861328125
187.0203 373.439147949219
187.1101 1845.14038085938
187.7100 13.349292755127
188.0800 1013.03881835938
189.0476 2458.97290039063
189.9400 100.318511962891
190.0600 3609.42700195313
191.0478 8366.00390625
192.0700 8294.3193359375
193.0291 5651.72119140625
194.0605 2584.88159179688
194.9217 270.720001220703
195.0100 959.267456054688
195.7667 90.0414047241211
195.9355 171.036407470703
196.0791 287.937194824219
196.8178 87.6253509521484
196.9989 752.001525878906
198.0690 2097.984375
198.8400 184.742416381836
198.9636 633.961181640625
199.9396 113.438919067383
200.0800 1084.19177246094
200.9394 1111.60302734375
201.9624 458.191101074219
202.0600 1261.18200683594
203.0490 3723.24780273438
204.0800 14697.185546875
205.0602 8397.6904296875
206.0200 586.437194824219
206.0803 3551.91943359375
207.0339 1910.74890136719
208.0607 1905.95300292969
208.9326 506.770446777344
209.0969 522.148376464844
209.7700 69.3671951293945
209.8807 235.248184204102
209.9903 560.260314941406
210.1800 251.01513671875
211.0077 3485.36889648438
212.1000 12520.9921875
213.1200 13753.2021484375
214.1300 1682830.875
215.1200 279355.15625
216.1100 26442.859375
217.0459 6261.609375
218.0561 3538.80224609375
218.9738 2915.2607421875
220.0601 7035.6328125
221.0600 3743.65234375
222.0799 4633.3447265625
222.9214 195.183242797852
223.0300 874.249328613281
223.8200 40.0261497497559
223.9193 44.1628646850586
224.0900 134.500549316406
224.7625 83.0455169677734
224.9536 180.331390380859
225.1200 38.1007270812988
225.9500 99.9970474243164
226.0917 96.6068649291992
226.9734 323.364318847656
227.0956 102.54736328125
228.0300 383.3994140625
228.1200 248.423721313477
228.2588 5.8670539855957
229.0218 1117.17712402344
230.0608 1390.05859375
231.0334 915.390075683594
232.0578 2001.39477539063
232.1600 210.568588256836
233.0100 5503.7900390625
234.0363 3920.02587890625
234.9465 405.429901123047
235.0585 2094.69262695313
236.0995 8571.1142578125
236.9793 4750.1875
237.8775 152.616943359375
237.9764 631.415283203125
238.9772 650.586791992188
239.8369 55.6452865600586
240.0160 126.594764709473
240.9717 775.667358398438
241.8140 10.429141998291
241.9434 113.835487365723
242.0300 101.758399963379
242.1416 52.2890777587891
242.6933 9.17796516418457
242.8900 119.37329864502
243.0200 214.2373046875
243.9500 217.989868164063
244.0700 182.248733520508
244.7100 14.1091117858887
244.9361 203.997039794922
245.0874 252.140655517578
245.1900 40.614070892334
246.0400 770.141784667969
246.1100 1142.34802246094
247.0700 1073.62622070313
247.2200 63.4072532653809
247.9300 147.615707397461
248.0600 2127.79809570313
248.8320 14.5495090484619
248.9717 275.825134277344
249.0800 1436.181640625
249.8400 51.6225700378418
250.0400 651.487060546875
250.1400 532.779235839844
250.8300 60.8297882080078
251.0157 155.743911743164
251.1700 184.267944335938
251.8000 51.319580078125
252.0000 41.7840309143066
252.9468 193.935592651367
253.7634 42.833683013916
253.9300 87.7135009765625
254.1600 34.9301834106445
254.8221 26.8647193908691
254.9000 77.655143737793
255.9361 39.275463104248
256.1100 69.3018569946289
256.8760 107.593597412109
257.0000 96.8802719116211
257.8945 84.5824890136719
258.0400 187.07975769043
258.9090 130.596664428711
259.0800 108.442749023438
259.2000 21.8753356933594
260.0700 909.771545410156
260.1619 105.236404418945
260.9185 202.049118041992
261.0300 337.597564697266
261.2100 19.1464996337891
262.0900 2746.60766601563
262.8700 65.8561782836914
263.0400 612.296447753906
263.1400 710.462219238281
263.9000 61.4725036621094
264.1100 4910.6240234375
264.9895 356.426330566406
265.1500 678.857788085938
265.8800 13.8749809265137
266.0500 326.330718994141
266.7686 15.081974029541
266.9998 191.918548583984
267.2300 19.1089363098145
267.8700 17.652214050293
268.1400 24.0210361480713
268.2500 13.2141914367676
268.7312 19.2363471984863
268.9066 139.036666870117
269.5800 14.5719614028931
269.9500 60.7588958740234
270.5700 41.8429527282715
270.8841 261.997741699219
271.0267 151.561798095703
271.7406 22.1672687530518
271.9232 14.6697807312012
272.0200 91.0141296386719
272.9879 477.232940673828
273.1200 122.224761962891
273.8535 40.8542709350586
274.0011 373.973358154297
274.1200 42.6771392822266
274.9665 860.5732421875
275.9300 203.904602050781
276.0195 525.171325683594
276.9900 512.512939453125
278.1100 5373.94677734375
278.8948 164.739822387695
279.0600 532.007446289063
279.1500 492.268798828125
279.8900 46.1835327148438
279.9800 108.962684631348
280.1600 69.460319519043
280.8442 57.8894729614258
280.9888 47.8641204833984
281.8100 30.5827922821045
281.9327 52.0234909057617
282.0700 13.5410871505737
282.2100 26.7354984283447
282.8300 46.9787101745605
282.9337 13.1148262023926
283.1200 16.5980815887451
284.1192 13.9672079086304
284.9827 399.043151855469
285.9851 203.10661315918
286.1045 28.2525177001953
286.5000 18.4359340667725
286.8824 156.404998779297
287.0329 84.3711166381836
287.9123 135.865081787109
288.1000 266.477874755859
288.8400 343.903472900391
288.9718 591.198974609375
289.8558 8.55470275878906
290.0032 495.209228515625
290.1411 74.5221710205078
290.7700 31.8643188476563
290.9160 267.148986816406
291.0196 204.886154174805
291.9400 16.5443477630615
292.0512 313.073852539063
292.1300 458.225708007813
292.2400 134.220764160156
292.9666 1347.03918457031
293.9796 469.907501220703
294.7455 14.464958190918
294.9282 162.435546875
295.1200 90.1922988891602
295.8322 53.9245147705078
296.0408 45.9039192199707
296.9285 548.084228515625
297.9061 35.3924713134766
297.9800 68.1991500854492
298.6500 15.5021390914917
298.8211 60.7898101806641
298.9397 25.3937301635742
299.0613 75.5253524780273
300.0600 53.6084899902344
300.7047 8.66908740997314
300.9126 123.37052154541
301.0600 80.1416397094727
301.6900 23.3272190093994
301.9753 93.9932250976563
302.2200 17.2480621337891
302.8598 18.7697696685791
303.0100 230.802627563477
303.9300 124.700050354004
304.1120 268.181457519531
304.2400 40.2074432373047
305.0600 120.244651794434
305.2100 143.024291992188
306.1500 1537.57275390625
306.9975 61.0905914306641
307.1279 408.97216796875
307.2800 40.7178001403809
308.0347 151.874740600586
309.0100 40.9127502441406
310.7725 29.3656692504883
311.0234 152.683776855469
311.2138 5.86938953399658
311.8500 12.8853044509888
313.0300 12.9732542037964
314.9023 86.9577331542969
314.9800 69.5274963378906
315.1311 45.885913848877
315.2500 18.1564674377441
315.8100 15.6859350204468
315.9100 66.6877288818359
316.0900 124.999816894531
316.2100 17.7695045471191
317.0300 605.220153808594
317.1500 402.265899658203
317.9600 45.8252372741699
318.1000 526.964416503906
318.1800 226.048049926758
319.1702 4199.1220703125
319.9600 35.4372367858887
320.0900 397.838256835938
320.1600 866.673828125
321.0600 115.776000976563
321.1800 169.2431640625
322.2200 18.9173450469971
323.0300 33.2547187805176
326.0300 18.6563529968262
326.8650 5.20723533630371
327.0400 33.0854949951172
328.7600 21.5552425384521
329.0447 1.88216686248779
329.9600 29.4348049163818
330.1800 14.3949174880981
330.6600 20.055326461792
330.8500 51.7116394042969
331.0500 62.4646911621094
331.2100 42.1772155761719
332.0300 27.8952484130859
332.1900 62.5686645507813
332.3800 17.226432800293
333.0900 586.882751464844
333.2100 124.53279876709
334.0700 309.306915283203
334.1700 519.844604492188
335.1800 34343.57421875
336.1699 7996.7734375
336.8900 53.7952537536621
337.0200 92.3264236450195
337.1400 747.3525390625
337.2100 360.566375732422
338.1100 14.6565084457397
338.3200 40.0887222290039
340.6200 19.6679668426514
341.0300 14.8287010192871
343.2300 18.6212596893311
345.0020 31.6831340789795
345.1400 17.0391597747803
345.8400 16.627462387085
347.1300 155.058517456055
347.2600 19.637638092041
348.0100 37.3943977355957
348.8500 182.940017700195
348.9696 149.085678100586
349.1300 30.1283302307129
349.3500 12.797869682312
349.7000 14.350643157959
349.9300 75.6700210571289
350.0400 18.4869766235352
350.1600 14.0741806030273
350.7700 13.4675140380859
350.9200 89.205696105957
352.1900 16.5511207580566
352.7147 1.29769515991211
352.8300 48.8073463439941
352.9500 91.370849609375
353.8800 27.5446109771729
357.9100 13.4918146133423
358.8900 15.2012214660645
360.9700 17.4370288848877
363.0696 7.44451808929443
366.8900 14.270450592041
367.0100 80.8369293212891
367.1400 71.4100723266602
367.9100 20.6685314178467
368.8900 29.8592224121094
370.7857 26.2362060546875
371.0122 21.2358436584473
376.9800 13.9619636535645
377.2200 19.8923778533936
379.4100 16.2628688812256
384.2800 17.0557460784912
386.8600 23.1283588409424
400.9427 5.90855598449707
401.1143 10.0264501571655
401.9800 28.3340892791748
408.8613 5.59720039367676
408.9900 23.2773761749268
445.0900 32.1555976867676
