#"+EI Scan (rt: 3.856-3.926 min, 13 scans) R2M1.D  Subtract "
#Point,X(Thompsons),Y(Counts)
40.0893 1805.60485839844
41.0698 42164.62109375
42.1090 3815.33471679688
43.0799 88919.21875
44.0349 3060.74682617188
44.9695 239.231781005859
45.1200 66.8683013916016
45.9100 17.3648910522461
46.0400 18.8010845184326
47.0245 221.154205322266
48.8869 220.578201293945
49.0730 25.9660873413086
49.9997 1349.75695800781
50.0600 1534.57373046875
51.0374 10119.5537109375
52.0498 8437.197265625
53.0604 4652.41015625
53.9700 267.742584228516
54.0676 576.723693847656
55.0670 14546.12109375
55.9650 309.104339599609
56.0777 583.092163085938
57.1000 1089.16479492188
58.0859 279.793670654297
59.0357 2798.455078125
59.9345 259.249572753906
60.9812 562.634704589844
62.0080 3911.212890625
63.0295 11510.5537109375
64.0290 4438.14111328125
65.0397 22177.306640625
66.0303 2035.79528808594
67.0413 1749.23767089844
67.9800 241.204864501953
68.1100 147.379043579102
68.2274 56.8731155395508
69.0453 3443.923828125
69.8400 54.5968437194824
70.0188 276.890197753906
70.1400 267.043975830078
71.0897 3043.01879882813
71.8600 16.7895946502686
71.9985 195.630676269531
72.1162 25.3474044799805
72.3700 35.0529479980469
73.0340 2053.28857421875
74.0080 2489.8427734375
75.0285 9125.2978515625
76.0395 11386.5322265625
77.0464 42051.51953125
78.0473 63842.3671875
79.0428 7016.33740234375
79.9716 366.050476074219
80.0945 116.029388427734
80.2500 49.8445625305176
80.9956 1040.974609375
81.7200 61.8742904663086
81.8225 140.660736083984
81.9642 94.0628662109375
82.1483 30.7932052612305
82.2500 159.721298217773
82.4800 159.742294311523
82.7937 85.5864944458008
82.8900 356.565216064453
83.1900 129.183670043945
83.3700 121.770149230957
83.4800 251.743789672852
83.6300 214.568695068359
83.9625 5.08758735656738
84.0876 17.9867630004883
84.6400 40.7230911254883
85.0170 329.177734375
85.1437 23.954158782959
85.8814 210.6259765625
86.0200 666.186157226563
86.1400 37.1115684509277
87.0202 3729.37841796875
88.0399 12139.9501953125
89.0396 62952.9375
90.0488 14214.2607421875
91.0495 72507.0859375
92.0403 6985.84521484375
92.9864 630.099914550781
93.1400 46.6270904541016
93.7485 53.2162818908691
93.8700 19.2950630187988
94.0067 84.916259765625
94.1487 150.833694458008
94.4100 82.4662551879883
94.5700 137.427963256836
95.1071 310.0830078125
95.2391 1151.09704589844
95.4400 48.7147903442383
95.5700 149.433364868164
95.7258 565.446899414063
95.9345 133.224868774414
96.1665 58.4057540893555
96.3300 169.157821655273
96.4600 36.1387557983398
96.6400 143.616134643555
96.8200 198.583831787109
96.9933 180.928588867188
97.8700 110.093765258789
97.9687 344.389038085938
98.0764 95.3674240112305
98.8805 156.084442138672
99.0085 429.682678222656
99.1528 82.6569976806641
99.9200 92.5305099487305
100.0900 1129.24035644531
101.0399 19433.572265625
102.0400 56525.1171875
103.0302 21050.56640625
103.9758 1200.35546875
104.0500 1793.34545898438
105.0392 4299.3037109375
105.1600 135.784393310547
106.0202 8595.4013671875
107.0108 2055.81079101563
107.9482 229.786590576172
108.8400 438.672790527344
108.9900 1679.3837890625
109.8484 570.089233398438
110.1473 30.2929286956787
110.6500 90.8266677856445
110.7700 125.099746704102
110.9232 195.561126708984
111.0200 337.082153320313
111.1600 97.0605621337891
111.7700 136.376586914063
111.9883 256.326232910156
112.2075 71.9099197387695
113.0372 2428.88403320313
114.0399 17214.369140625
115.0397 64386.69140625
116.0400 147272.234375
117.0272 18760.3359375
118.0146 106.768310546875
118.1988 587.14990234375
118.4400 1288.27026367188
118.5900 2969.3203125
118.6800 615.65380859375
120.0100 69.8085174560547
120.1790 1713.88928222656
121.0600 95802.5703125
122.0497 9656.375
122.9558 676.014404296875
123.0609 751.806213378906
123.5700 183.697082519531
123.6831 87.1714630126953
124.1454 97.0097961425781
124.3900 201.366134643555
124.5800 1696.31420898438
124.7095 826.070007324219
125.5800 10021.4560546875
127.0284 6079.111328125
128.0400 46516.86328125
129.0400 101173.9140625
130.0500 48299.46484375
131.0366 6562.29248046875
131.9981 930.53173828125
132.1300 211.261779785156
132.3100 9.80793571472168
133.0051 1429.1796875
133.9362 154.611114501953
134.0426 402.075042724609
135.0297 3128.462890625
135.9604 283.017211914063
136.0745 193.087753295898
137.0100 12057.81640625
137.9930 1804.94091796875
139.0791 6875.61474609375
139.6310 449.832672119141
139.8695 1860.673828125
139.9904 3309.58935546875
141.0252 5477.43359375
142.0584 6355.06494140625
143.0400 56091.515625
144.0400 464760.5
145.0397 47555.51171875
146.0394 3466.68823242188
146.7800 27.2595863342285
146.9139 279.925903320313
147.0734 135.778854370117
147.6600 16.4947032928467
148.0283 1505.45483398438
148.2100 19.9089870452881
148.6500 20.9089889526367
148.8400 78.3975372314453
148.9687 158.723052978516
149.0700 307.734924316406
149.8913 175.839813232422
150.0400 1340.30187988281
151.0293 3616.35083007813
151.9096 102.959716796875
152.0407 3747.50732421875
153.0342 2261.44750976563
154.0495 9026.3984375
155.0092 4802.50537109375
156.0693 11223.4443359375
157.0481 18093.6796875
158.0496 15563.28515625
158.9763 5414.5625
159.9668 784.04736328125
160.8800 244.362030029297
160.9816 372.047454833984
161.9848 558.698059082031
162.1000 46.6910018920898
162.9922 3253.68530273438
163.9854 979.809143066406
164.0604 2576.77416992188
165.0588 7991.03662109375
165.1389 74.7991104125977
166.0497 3253.73413085938
167.0009 422.766479492188
167.1200 5657.54345703125
167.5300 478.893920898438
167.6900 1941.82983398438
167.7793 1657.57507324219
168.0595 838.882019042969
168.1700 45.6099891662598
168.9990 1035.43933105469
169.0998 450.245544433594
170.0599 17511.533203125
171.0215 3831.80688476563
171.7200 29.1349563598633
172.0400 1377.71105957031
173.1200 201.521728515625
173.2700 13.2723960876465
173.8400 160.080535888672
174.0000 229.957824707031
174.0677 142.524383544922
174.7900 15.1603126525879
174.9763 799.718444824219
176.0600 4324.7646484375
176.9784 824.407592773438
177.0600 2121.11694335938
177.9311 24.5472717285156
178.0502 4486.47998046875
178.9145 5.67354965209961
179.0305 1770.20300292969
179.1500 112.765205383301
180.0200 2178.8955078125
180.8200 89.4572906494141
181.0309 740.419799804688
181.9585 205.13655090332
182.0500 873.902404785156
182.1354 65.0014495849609
182.9240 95.5547485351563
183.0137 520.382873535156
183.1500 127.405235290527
183.9637 131.581115722656
184.0699 6217.6083984375
185.0400 3062.78735351563
186.1000 3500.97436523438
187.0314 1605.6318359375
187.1431 349.796447753906
187.9000 202.013153076172
188.0400 690.099182128906
188.9960 1402.6474609375
189.0800 1143.45520019531
189.8900 191.484848022461
190.0600 3392.2392578125
191.0470 8207.103515625
192.0485 4266.1748046875
192.0900 3633.2783203125
193.0466 5452.16357421875
193.8533 74.1564178466797
194.0588 1964.15759277344
194.1700 213.472686767578
194.8200 130.644760131836
194.9645 768.046020507813
195.9000 81.0882949829102
195.9913 507.790222167969
196.8141 52.6045989990234
196.9300 106.963745117188
197.0342 440.264221191406
198.0592 2278.7353515625
198.8796 243.060760498047
198.9825 522.102600097656
200.0800 904.988342285156
201.0003 1401.02001953125
201.9954 1603.248046875
202.1100 93.0451736450195
203.0282 3385.05786132813
204.0800 15041.9365234375
205.0800 8498.31640625
206.0900 4142.4404296875
207.0700 1848.60607910156
208.0806 2042.59912109375
209.0500 608.257507324219
209.1600 790.1669921875
209.5700 53.9796981811523
209.7415 89.5286254882813
209.9718 403.395477294922
210.1100 623.201416015625
211.0024 3094.02392578125
212.1000 11729.9287109375
213.1081 13224.822265625
214.1300 1706359.25
215.1200 282128.5625
216.1100 27493.42578125
217.0433 6412.1484375
218.0454 3685.68701171875
218.9733 3142.76416015625
220.0600 7387.09814453125
221.0500 4000.36083984375
222.0794 4590.16259765625
223.0205 1289.35729980469
223.7819 40.4276657104492
223.9565 189.571090698242
224.1200 51.242561340332
224.9417 381.766906738281
225.0500 41.4248237609863
225.8797 60.2386322021484
226.0300 129.10693359375
226.2900 17.640510559082
226.7905 3.36483764648438
226.9723 335.154968261719
227.0988 27.6457366943359
227.9400 140.343170166016
228.0391 425.738006591797
228.1600 81.319221496582
228.7852 3.88041687011719
228.9232 174.368896484375
229.0263 440.769775390625
229.9030 54.1268692016602
230.0679 1361.37756347656
230.7522 40.8728561401367
230.9359 188.883209228516
231.0340 562.751525878906
231.2100 47.9083023071289
232.0107 849.473327636719
232.0800 1168.45483398438
233.0094 5605.00634765625
234.0500 5200.275390625
235.0802 2981.89477539063
236.1100 8857.2744140625
236.9862 4335.1962890625
237.9130 500.838562011719
238.0195 356.014404296875
238.9477 387.516845703125
239.0850 2.22388458251953
239.7748 1.04146575927734
239.9100 103.42276763916
239.9962 105.570449829102
240.0800 135.136245727539
240.8337 191.944610595703
240.9774 240.364654541016
241.6500 16.1162853240967
241.7800 51.3471069335938
241.9264 93.6892929077148
242.0700 192.692398071289
242.8500 106.174110412598
243.0300 57.2626342773438
243.1500 27.0782661437988
243.8100 14.6050424575806
244.0200 218.02946472168
244.1000 126.193794250488
244.3100 35.4000205993652
244.8000 112.460525512695
245.0761 283.742156982422
245.3900 21.4251289367676
246.0202 677.080871582031
246.1000 1212.24182128906
246.9394 273.220062255859
247.0708 763.067565917969
247.7300 28.09326171875
248.0697 2105.83544921875
248.2100 36.1577682495117
248.6700 25.3020191192627
249.0795 1890.31884765625
249.9400 164.359375
250.0600 530.841918945313
250.1400 601.208068847656
250.8600 76.3476028442383
251.0163 120.473983764648
251.1200 94.554328918457
251.8400 43.9953765869141
252.0300 32.6873741149902
252.8759 38.3897171020508
253.0376 106.616561889648
253.9100 27.486873626709
254.0400 182.8857421875
254.6900 22.992244720459
254.9400 143.942443847656
255.7600 35.9814605712891
255.8931 29.3426647186279
255.9900 16.4330520629883
256.7420 43.6922378540039
256.9018 0.899978637695313
257.0500 179.548889160156
257.8500 67.3184280395508
257.9700 62.3246917724609
258.1100 88.15625
258.3000 18.2494869232178
258.8366 64.2325820922852
258.9764 146.225799560547
259.8900 88.950065612793
260.0700 840.830810546875
260.2700 19.1896095275879
260.9481 439.952911376953
261.1100 142.563507080078
262.0200 357.813751220703
262.1098 2267.90209960938
263.0900 1244.20849609375
263.1900 54.7477645874023
264.1000 3593.51733398438
264.1600 1175.01159667969
265.0400 358.542694091797
265.1400 606.850158691406
265.8800 103.656745910645
266.0710 75.302131652832
266.1900 184.61540222168
266.7700 40.9306640625
266.9074 54.0068054199219
267.0328 21.9236927032471
267.2600 18.7542724609375
267.7859 30.8541927337646
267.9800 32.1047668457031
268.9779 343.996154785156
269.8965 44.3725738525391
270.0346 19.9578132629395
270.6858 20.0677719116211
270.8000 74.9587020874023
270.9222 105.100921630859
271.8675 18.2720413208008
271.9900 112.360458374023
272.1600 51.4743499755859
272.9100 156.579406738281
273.0186 177.340148925781
273.9619 308.847259521484
274.1100 108.851898193359
274.2100 17.4549674987793
274.8011 135.592712402344
274.9818 276.818359375
275.9161 32.9506568908691
276.0400 714.766174316406
276.9568 429.557861328125
277.0855 108.11988067627
278.0368 845.06591796875
278.1100 4929.568359375
278.9700 674.7333984375
279.1081 614.323913574219
279.8500 61.4479217529297
279.9400 149.404602050781
280.0700 25.4468288421631
280.1800 45.6704635620117
280.9256 56.2976226806641
281.0300 226.384490966797
282.0600 13.6300849914551
282.1800 12.8161735534668
282.7800 44.343620300293
282.9000 156.212020874023
283.8800 23.7502670288086
285.0110 662.638610839844
285.8000 28.5861930847168
285.9529 128.148803710938
286.0900 133.65754699707
286.7700 36.6754989624023
286.9111 54.7773742675781
287.0821 120.454849243164
288.0766 367.877868652344
288.9766 1019.2431640625
289.9973 748.57421875
290.1015 28.0352325439453
290.8859 18.4856414794922
291.0300 503.975616455078
292.0200 436.678527832031
292.1500 361.264129638672
292.9456 996.080993652344
293.8600 17.6343841552734
293.9537 267.929138183594
294.7550 47.3960342407227
294.9483 160.757934570313
295.7300 31.4715042114258
295.9936 125.738304138184
296.3600 28.7004470825195
296.6000 24.8268299102783
297.0100 492.572814941406
297.7206 71.1455688476563
297.9254 13.5962142944336
298.0300 53.0843887329102
298.8152 42.8110389709473
298.9539 36.2816390991211
299.0742 5.7025318145752
299.8900 61.1158065795898
300.0400 29.4240951538086
300.9500 168.454116821289
301.1299 25.8662624359131
301.9100 17.7311515808105
302.0200 75.8791580200195
302.2266 111.954528808594
302.7612 3.03591728210449
302.9756 146.531692504883
303.0900 94.4258193969727
303.8667 27.5345649719238
304.0331 82.1298294067383
304.1700 253.998565673828
304.9483 59.9205627441406
305.1300 137.496673583984
305.3700 20.1865558624268
306.0500 64.806640625
306.1800 1513.22473144531
307.0206 373.909637451172
307.1600 249.823745727539
307.9955 87.2496337890625
308.1300 34.2082786560059
308.8700 34.5200271606445
309.0200 15.3942403793335
309.1400 13.6655378341675
310.8300 12.4229574203491
310.9677 6.88017082214355
311.1600 46.4683151245117
311.8900 86.0999908447266
312.9700 36.3434677124023
313.9700 17.0688152313232
314.1138 20.9612331390381
314.6600 26.9992046356201
314.8444 114.596389770508
314.9931 30.7497005462646
315.1800 32.0030250549316
316.0800 244.310546875
317.0400 319.20166015625
317.1600 839.942077636719
318.0100 177.763458251953
318.1700 659.991577148438
319.1883 3894.22387695313
320.1200 804.628051757813
320.2200 433.137237548828
320.9600 73.7138137817383
321.0600 65.7821807861328
321.2000 164.190811157227
322.0000 25.3220081329346
322.1700 14.6973991394043
323.1600 16.089973449707
324.1000 14.2701559066772
324.9300 14.2432231903076
326.7938 5.91513729095459
327.0100 44.7528610229492
327.1400 23.1635246276855
327.9600 15.8107767105103
328.8400 32.4109420776367
328.9543 0.278134346008301
330.0800 24.0890922546387
330.9000 106.158767700195
331.0342 49.5692138671875
332.0200 14.0708360671997
332.1300 82.7829284667969
332.8334 4.34633731842041
333.0220 195.791213989258
333.1500 423.964538574219
333.2900 29.5604877471924
334.0900 536.742431640625
334.2000 300.59765625
335.1900 34705.44140625
336.1600 8375.376953125
336.3000 153.283615112305
336.9700 20.8843307495117
337.1100 714.166137695313
337.2100 426.227233886719
337.9800 37.5103607177734
338.1100 43.7966041564941
338.2900 12.7381534576416
339.8300 15.3169078826904
342.7500 13.3891620635986
344.9427 3.30682945251465
345.0800 13.8836011886597
346.1600 21.9047946929932
347.1200 74.8518829345703
347.2200 45.5514335632324
348.0500 16.1765365600586
348.2000 13.1979732513428
348.8043 124.80973815918
349.0386 167.519149780273
349.1700 51.1337356567383
349.5000 13.2871236801147
349.9800 95.506103515625
350.7300 13.8567485809326
351.0100 131.147689819336
351.9500 24.890474319458
352.7551 52.3249359130859
352.9315 43.3587684631348
353.1900 18.0316123962402
353.8500 16.9081554412842
354.0579 4.22205829620361
354.7581 3.37992572784424
354.8900 55.0779418945313
356.6600 14.6699075698853
356.8200 11.8688411712646
356.9300 34.9591827392578
357.2200 13.5787906646729
358.8700 14.5202856063843
362.4600 13.6200799942017
362.9109 9.0496883392334
363.8100 12.914758682251
364.9100 13.649507522583
366.6400 36.9528884887695
366.8700 118.610809326172
366.9549 15.9584407806396
367.2523 8.98340702056885
368.0900 14.5886526107788
369.0300 11.8675842285156
371.0600 20.1330699920654
371.9800 31.2690963745117
382.9900 12.8747692108154
385.1700 15.7456760406494
401.1100 12.7907562255859
411.1900 15.1856164932251
412.1100 12.9219570159912
413.3900 13.2318515777588
429.1200 12.0994462966919
444.7800 15.3530712127686
461.0900 13.4875545501709
