#"+EI Scan (rt: 4.520-4.602 min, 15 scans) R2M1.D  Subtract "
#Point,X(Thompsons),Y(Counts)
40.0900 106.801155090332
41.0512 3087.34692382813
41.8500 14.1981372833252
41.9700 166.945587158203
42.0700 163.475189208984
42.9887 250.747131347656
43.9575 309.933959960938
44.8300 42.6101226806641
44.9200 292.627349853516
45.7800 10.0591154098511
45.9900 24.2578926086426
46.1000 28.7444095611572
46.9414 235.583038330078
48.7700 25.3470420837402
48.9400 77.3649826049805
49.0800 21.0633850097656
50.0000 294.958770751953
50.9863 542.210571289063
51.1200 64.508415222168
51.7700 11.1592683792114
51.9400 154.00439453125
52.1200 25.9180812835693
52.9900 539.725708007813
53.8800 13.1777486801147
55.0200 981.395141601563
55.1600 75.0184097290039
55.8800 76.3662796020508
56.0900 223.723037719727
56.9200 69.9593048095703
57.0393 854.173706054688
57.1300 228.193618774414
58.1200 183.736587524414
59.0251 401.712890625
59.8300 30.7261962890625
60.0800 141.537689208984
60.2100 15.3045263290405
60.9800 68.353401184082
61.1700 12.9917774200439
61.9400 268.737579345703
62.0300 145.20361328125
62.8500 98.1166000366211
62.9700 358.626190185547
63.0516 125.27099609375
63.8200 13.3505659103394
63.9400 194.894454956055
64.0500 68.1894454956055
65.0200 200.895065307617
65.1700 26.9173202514648
65.8600 43.9088859558105
66.0300 45.7372550964355
66.8100 15.1180210113525
66.9000 139.83430480957
67.0117 122.740997314453
67.8300 12.6874780654907
68.1200 12.997275352478
69.0500 490.466278076172
69.8400 16.3001003265381
70.0800 37.7986640930176
70.2000 18.4861507415771
70.8900 91.4898452758789
71.1800 17.1096458435059
71.9100 29.9979991912842
72.1600 67.3437194824219
73.0153 174.1494140625
73.9700 325.308502197266
74.0806 124.06787109375
74.1900 43.896183013916
75.0218 942.031127929688
75.9100 219.320861816406
76.0571 665.204895019531
77.0157 3529.11328125
78.0335 1265.017578125
78.9000 174.449996948242
80.0300 135.707305908203
80.1800 66.0547332763672
81.7900 25.5563564300537
81.9513 26.7726135253906
82.0600 33.4081954956055
82.7200 18.183048248291
83.0300 202.870986938477
84.0700 31.1537647247314
84.3700 11.1389646530151
84.7700 100.413215637207
84.8900 41.542163848877
85.8100 43.4185752868652
86.0000 166.311340332031
86.8500 98.129508972168
87.0400 324.410705566406
87.7600 13.3051404953003
87.9800 741.633605957031
88.1300 49.6096458435059
89.0300 2457.55981445313
89.9435 56.07080078125
90.0900 173.428955078125
90.7600 41.4691352844238
91.0500 251.369537353516
91.7700 27.8722229003906
92.7400 40.3924560546875
93.0400 245.220352172852
93.3500 19.1174259185791
93.5600 22.0829658508301
93.7000 42.2382850646973
93.8700 15.2579126358032
94.2000 39.010913848877
94.3500 59.363655090332
94.5500 111.08366394043
94.7300 44.4227561950684
94.8500 107.786201477051
95.0700 86.5261306762695
95.7200 23.2739543914795
95.9929 133.854339599609
96.1100 66.1977767944336
96.6700 19.4761352539063
96.7900 22.9845066070557
96.9919 126.281402587891
97.1900 53.597827911377
97.9200 114.627372741699
98.2300 13.9271879196167
98.9100 112.958137512207
99.0030 101.44654083252
99.6500 10.3952922821045
99.9500 311.81689453125
100.0600 83.8569107055664
100.1900 79.3009796142578
100.9083 61.6032791137695
101.0200 2405.2294921875
101.8800 66.1043472290039
102.0000 1618.44592285156
102.0791 752.143676757813
103.0014 754.573120117188
103.1600 35.8184089660645
103.8800 91.2668075561523
104.0200 127.958122253418
104.9700 216.270797729492
105.6300 51.8008155822754
106.1100 71.8757629394531
106.3500 114.269325256348
106.5400 87.8672866821289
106.7100 168.747909545898
106.9000 272.263153076172
107.2700 73.2336730957031
107.4700 21.2621479034424
107.5700 33.3740501403809
107.7400 74.7578964233398
108.0300 42.6301536560059
108.1700 72.1377944946289
108.3000 19.8169269561768
109.0100 738.5048828125
109.8900 216.094329833984
110.8000 59.2195053100586
110.9500 336.926300048828
111.6800 17.7124290466309
111.8900 35.8677291870117
112.0100 60.1073341369629
112.1500 116.55249786377
112.9600 687.078796386719
113.0892 266.885925292969
113.8900 423.563995361328
114.0400 452.836608886719
114.1500 126.207984924316
115.0109 2350.68212890625
116.0189 4530.17236328125
116.8400 69.2711563110352
116.9896 111.902099609375
117.0700 777.127014160156
117.8300 50.66845703125
117.9900 284.268096923828
118.3700 12.0584201812744
119.0400 193.965423583984
119.1400 35.8158187866211
119.6000 44.4914665222168
119.6800 36.4065628051758
119.8500 10.9605073928833
120.0200 34.0359268188477
120.2900 82.566780090332
120.4600 56.2642059326172
120.5800 368.111724853516
120.8100 125.099380493164
120.9670 62.9709167480469
121.1500 107.849021911621
121.7400 46.2863693237305
121.8400 82.0271224975586
122.0800 25.2600059509277
123.0800 97.901237487793
123.7900 15.0457668304443
123.9100 15.250693321228
124.1600 36.0564460754395
124.9300 599.501037597656
125.0300 181.862655639648
126.0400 4400.41162109375
127.0301 19092.708984375
128.0287 5643.1220703125
128.9759 578.221801757813
129.0500 1707.84655761719
129.9210 554.66552734375
130.0500 1360.83093261719
130.8731 52.6420135498047
130.9953 170.602523803711
131.1100 125.964729309082
131.9900 84.9460525512695
132.2600 71.9583282470703
132.7600 96.106803894043
133.0600 192.240768432617
133.4300 32.1635055541992
133.5800 11.5432262420654
133.7500 32.633487701416
134.0700 149.121520996094
134.2300 16.5799293518066
134.8800 69.9258728027344
135.0700 431.774078369141
135.6000 40.5647850036621
135.8200 154.002960205078
136.1000 206.126373291016
137.0100 2449.935546875
138.9752 818.731567382813
139.8300 38.3710136413574
139.9500 242.837341308594
140.1400 160.530410766602
140.9900 1429.96264648438
141.1900 171.674102783203
141.5100 269.287506103516
141.7300 382.773803710938
141.8914 102.46452331543
142.0461 224.763107299805
142.1900 184.273864746094
142.5800 14.8103771209717
142.6900 45.2519760131836
142.8898 257.403839111328
143.0248 805.511169433594
144.0215 10413.6787109375
144.9800 1214.25805664063
145.0821 293.151458740234
145.6800 10.2609977722168
145.9400 125.236099243164
146.0900 70.0469436645508
146.7100 33.2170639038086
146.8761 55.8695068359375
147.0000 140.370590209961
147.1700 20.9059505462646
147.6400 16.120454788208
147.7700 22.2347888946533
147.9400 24.337459564209
148.6100 11.6039686203003
148.7200 70.2032699584961
148.9900 211.675201416016
149.0800 47.0783004760742
149.3500 17.2124195098877
149.4700 13.3313360214233
149.8100 71.5920867919922
150.0000 246.789260864258
150.7800 39.9675254821777
150.9100 344.484008789063
151.1700 44.5338134765625
151.6800 15.4105072021484
151.9300 91.3355484008789
152.0300 405.006805419922
152.1300 39.0648002624512
152.8800 93.8434829711914
152.9610 58.4821929931641
153.6800 20.4423656463623
154.0300 590.914428710938
154.9200 373.7861328125
155.0189 6226.39697265625
156.0000 1209.46228027344
156.0800 64.9775085449219
156.8600 122.679695129395
156.9728 265.822387695313
157.0900 76.1788864135742
158.0400 292.975402832031
158.9611 1639.44384765625
160.0200 239.515228271484
160.8200 59.5929069519043
160.9105 394.836639404297
161.8700 82.4816513061523
161.9800 90.4534606933594
162.1500 24.9563522338867
162.9744 306.572265625
163.5500 39.9239273071289
163.7200 78.3549575805664
163.8400 56.3758392333984
163.9800 217.849990844727
164.7300 96.4616851806641
165.1000 119.226036071777
165.8300 104.859649658203
165.9800 40.668083190918
166.1300 49.5572052001953
166.9986 4228.53759765625
167.8300 145.927627563477
168.0100 694.697143554688
168.6500 26.9847736358643
168.9600 136.242279052734
169.0400 149.191482543945
169.7500 14.2900400161743
169.8600 161.02619934082
170.0200 524.574401855469
170.2700 20.7642784118652
170.9900 222.446304321289
171.8500 41.7517318725586
172.0100 450.473937988281
172.1300 146.305923461914
172.7900 10.984414100647
172.9500 336.458435058594
173.7300 14.8623876571655
173.8500 38.8787498474121
174.0000 60.5442504882813
174.1300 42.1979484558105
174.9400 76.3393020629883
175.0200 34.339241027832
175.9300 91.958366394043
176.1900 12.8063402175903
176.9231 204.525024414063
177.7800 14.9981737136841
177.9100 83.8022079467773
178.0500 74.521369934082
178.6000 15.9866333007813
178.8200 40.1371383666992
178.9900 111.816497802734
179.1000 61.2164154052734
179.8972 68.0100326538086
180.0600 84.7456283569336
180.7500 68.8488998413086
180.9257 33.042724609375
181.1000 23.9452877044678
181.6800 25.2169170379639
181.8776 48.3944931030273
182.0600 78.2519378662109
182.7900 110.014045715332
183.8000 48.431999206543
183.9943 77.7763748168945
184.1400 40.5143089294434
184.5000 22.7126121520996
184.9800 388.002227783203
185.8100 44.8689384460449
186.0600 98.7005081176758
186.1600 18.3878593444824
187.0200 849.618835449219
187.9100 100.601020812988
188.0200 201.030532836914
188.8900 376.528045654297
189.0037 204.52571105957
189.8300 31.7232456207275
189.9700 136.31086730957
190.1400 13.5643873214722
190.8900 436.325775146484
191.7200 31.4042854309082
192.0200 38.8081130981445
192.1700 11.0641784667969
192.7100 24.5509948730469
193.8800 124.56404876709
194.8900 580.330444335938
195.9500 234.865692138672
196.7600 44.4049758911133
196.8720 204.279876708984
197.9765 68.5274505615234
198.2100 40.954906463623
198.6600 44.462459564209
199.0300 333.830413818359
200.0895 15747.490234375
201.0200 1160.78881835938
201.0700 1767.54296875
201.9853 541.496459960938
202.6600 39.6352043151855
202.8404 10.1843338012695
203.9200 31.7389030456543
204.0300 69.2376480102539
204.7900 79.3982925415039
205.1200 16.2871570587158
205.8300 24.0367488861084
206.1600 29.3759593963623
206.9400 592.557861328125
207.9300 343.456573486328
208.9641 10.4031982421875
209.0600 177.153396606445
209.2300 24.3800983428955
209.8800 15.999960899353
210.0000 87.6233139038086
210.2000 32.1384735107422
210.9948 332.90234375
212.0659 3592.26416015625
213.0500 3379.15551757813
214.0000 296.100799560547
214.0800 802.322998046875
214.9900 1148.537109375
215.9567 537.50927734375
216.9591 305.068969726563
217.0400 239.502197265625
217.5300 14.7907342910767
217.7600 14.4810190200806
217.9900 172.883728027344
218.9672 2147.876953125
219.7100 22.4789848327637
219.8700 152.875183105469
220.9469 232.056396484375
221.8000 26.7052326202393
222.0400 63.5360984802246
222.1800 36.1146965026855
222.5700 39.1057014465332
222.8114 107.469787597656
222.9879 136.724716186523
223.8443 27.6571807861328
223.9600 170.522308349609
224.1000 85.3601837158203
224.7500 22.423267364502
224.9480 68.8741760253906
225.0700 398.048919677734
225.9000 43.5539016723633
226.0300 959.793151855469
226.6900 15.4107112884521
226.9439 174.657241821289
227.1000 408.71435546875
227.8700 69.834602355957
228.0500 527.299743652344
229.0100 648.164733886719
229.1300 123.114418029785
230.0600 142.144104003906
230.1600 59.1584091186523
230.6200 10.9874544143677
230.8100 62.6113395690918
230.9439 40.9873046875
231.1100 68.7179946899414
231.7900 16.0779228210449
231.8800 95.674690246582
232.0800 35.7224922180176
232.9951 314.099609375
233.8100 67.6296463012695
235.0300 298.074829101563
235.8900 95.2959289550781
236.9747 871.54345703125
238.0000 1889.89099121094
238.8200 84.0402908325195
238.9800 345.756103515625
239.9419 47.4789276123047
240.0590 2037.2138671875
241.0692 4474.56298828125
242.0826 2379.59716796875
242.9200 83.8224411010742
243.0700 654.534362792969
243.9000 99.723258972168
244.0300 17.2861709594727
244.1500 27.7614192962646
244.7500 39.3709754943848
244.8600 142.019607543945
245.1200 37.3979568481445
245.9500 28.5589809417725
246.9100 22.897123336792
247.0600 27.1028327941895
247.1500 13.3918209075928
247.8800 10.2615146636963
248.2000 12.583517074585
248.7300 27.760591506958
248.9238 49.2896270751953
249.0700 31.4623413085938
250.3300 10.1960363388062
250.9600 286.365600585938
251.1400 105.239814758301
251.9500 137.911849975586
252.0300 228.076889038086
253.0300 1145.21423339844
253.8800 50.4571495056152
254.0679 3374.3125
254.9700 295.928131103516
255.0800 1627.00012207031
256.0700 2108.73681640625
256.4800 20.2517223358154
257.0000 472.330535888672
257.1000 197.215728759766
257.8800 23.5424690246582
258.1400 23.1710910797119
258.9400 17.768648147583
259.5600 10.6182250976563
259.7500 12.7099046707153
260.1100 17.4113845825195
260.9800 67.122932434082
261.0900 10.4433259963989
261.8300 27.8317794799805
262.0000 23.8951416015625
262.8400 12.7936382293701
262.9600 50.185791015625
263.7900 10.6451025009155
264.9200 60.8750152587891
265.0200 230.95947265625
266.0000 451.198364257813
266.1200 295.315277099609
266.2400 48.7981185913086
266.9300 169.213607788086
267.0500 887.102966308594
267.1500 76.4641571044922
267.9800 296.492065429688
268.0900 937.765502929688
269.0700 2261.13110351563
270.0700 7156.2998046875
271.0400 1948.36059570313
271.9500 141.891036987305
272.0400 145.593795776367
272.1700 33.4676322937012
272.8600 305.943176269531
273.9000 41.9869766235352
274.7900 139.228073120117
275.0400 108.087020874023
275.7700 54.402286529541
275.8800 96.1139907836914
276.0500 33.1119537353516
276.5700 11.2011384963989
276.7800 181.460647583008
277.0500 127.360664367676
277.8300 55.3574371337891
277.9200 62.5073661804199
278.1700 14.2071189880371
278.8500 86.2922439575195
278.9516 26.7983245849609
279.8100 57.6794204711914
280.0100 244.141052246094
280.1100 112.690818786621
280.4200 28.2387561798096
280.8000 34.4787216186523
280.9000 149.04182434082
281.0400 220.544540405273
281.6100 10.9492931365967
281.8100 44.5252914428711
281.9900 234.523681640625
282.0859 294.768005371094
282.4800 17.4918785095215
282.9900 354.911773681641
283.1100 412.846710205078
284.0906 11553.38671875
285.0900 2626.67041015625
285.8300 14.8011274337769
285.9503 5.33836364746094
286.0800 368.016937255859
286.2400 16.7107810974121
287.2800 11.0615177154541
288.0500 18.2446117401123
288.2200 12.8547697067261
289.0100 1070.30358886719
289.9300 349.941070556641
290.8600 189.360992431641
291.8300 17.4081497192383
292.0200 61.7556953430176
292.9900 1288.65905761719
293.7900 221.678649902344
294.9358 147.396362304688
295.1300 43.140193939209
295.7400 16.2430572509766
295.8800 131.180480957031
296.1000 86.7038803100586
296.9811 291.485961914063
297.0900 132.359954833984
297.7000 15.1580286026001
297.8400 29.1291732788086
297.9700 106.797653198242
298.0600 492.094787597656
298.8600 86.4648895263672
299.0121 292.792205810547
299.1700 35.3045272827148
299.7900 17.1317234039307
299.9000 43.3162727355957
300.0700 28.1836109161377
300.9900 88.5687103271484
301.1100 12.1185293197632
302.8600 78.3772659301758
302.9900 78.2685699462891
304.4900 11.4519710540771
305.0700 39.6815872192383
306.9400 109.279716491699
307.1300 26.7972736358643
307.7100 11.1367816925049
307.9700 100.886756896973
308.1100 537.827209472656
308.1900 123.29621887207
308.9200 44.465015411377
309.0300 181.501541137695
309.1500 96.5066070556641
310.1401 9144.8994140625
311.0296 4.387939453125
311.1300 2343.29418945313
311.9600 21.4245090484619
312.1200 317.322906494141
312.2300 79.9296875
312.9100 55.9917068481445
313.1000 82.4224700927734
314.2400 13.0557298660278
314.6700 11.3217926025391
314.7900 10.6958875656128
314.9000 14.3787393569946
315.1200 61.8218727111816
317.1500 17.5219211578369
319.0600 75.3833999633789
319.8600 12.0376310348511
323.0600 20.5347537994385
323.8600 20.0742988586426
323.9800 108.576080322266
324.0900 125.820831298828
324.2400 21.5275459289551
324.9300 75.6813659667969
325.1100 132.059844970703
325.2400 33.9687881469727
326.1400 8644.8427734375
327.1400 19127.21484375
328.1200 2350.20483398438
328.1808 2090.51220703125
328.8200 21.180196762085
329.0200 203.980606079102
329.1300 408.3212890625
329.8200 10.6535243988037
330.7500 38.6765213012695
330.8700 35.903148651123
332.8500 62.0727272033691
334.7900 11.5423097610474
334.9100 12.8046617507935
335.1600 10.9384298324585
341.1100 100.063636779785
341.2500 38.0144920349121
341.4800 10.3233890533447
342.2500 25.5961322784424
345.9900 11.1967964172363
348.7800 81.3008804321289
348.9500 99.6145477294922
349.9900 11.8813219070435
352.9900 49.0126457214355
356.9000 12.7315664291382
358.8100 18.0902366638184
363.0900 11.4740495681763
364.9200 12.4787397384644
367.0200 47.422191619873
368.7400 12.2007074356079
374.8400 11.2899208068848
380.8300 10.2574071884155
385.1100 14.0753078460693
386.9300 10.6983060836792
400.8600 29.3033409118652
