#"+EI Scan (rt: 4.515-4.596 min, 15 scans) R7M1.D  Subtract "
#Point,X(Thompsons),Y(Counts)
41.0411 2721.12475585938
42.0500 251.162445068359
42.1500 38.7919540405273
43.1800 39.4050178527832
43.9716 228.680419921875
44.8900 117.011054992676
46.8500 145.851181030273
48.7600 10.5816984176636
48.9100 54.497241973877
49.0600 10.8602170944214
49.7900 28.8565788269043
49.9279 61.53271484375
50.0800 117.868141174316
50.9000 149.36181640625
51.0077 359.854248046875
51.9000 16.841236114502
51.9900 205.383514404297
52.2400 11.214750289917
52.9400 167.922073364258
53.8700 10.8688898086548
54.0100 104.61255645752
54.9500 439.916198730469
55.7900 26.4551906585693
56.9300 43.6515426635742
57.0590 953.383361816406
57.8900 97.8046875
58.0800 276.326995849609
59.8600 48.9301910400391
60.8500 23.9046802520752
61.0700 25.9169235229492
61.9900 10.9326782226563
62.1400 41.0218849182129
62.9600 803.345947265625
63.9600 214.071929931641
64.1000 73.6873245239258
64.7800 52.4245147705078
64.9200 157.288604736328
65.0800 97.3838729858398
65.8900 63.1051445007324
66.0100 47.8755149841309
67.0119 84.8240661621094
67.7700 13.9550333023071
67.8900 12.6695013046265
69.0200 375.950256347656
69.9500 12.3270587921143
70.2700 15.734938621521
71.0300 175.988372802734
71.1400 17.0142383575439
72.0000 59.9142303466797
73.0398 153.76318359375
74.0281 476.773864746094
75.0176 715.170532226563
76.0600 909.692687988281
77.0300 2931.2392578125
78.0244 1400.83544921875
79.0042 143.261474609375
80.0200 56.9301147460938
80.1800 13.7663316726685
80.3000 28.6342639923096
81.0800 238.16340637207
81.7900 28.6200923919678
81.9421 104.902862548828
82.1000 54.5660247802734
82.5900 17.0763931274414
82.8800 61.3837661743164
83.0090 181.275054931641
83.7300 10.8142395019531
84.0700 16.3548641204834
84.1700 31.6399707794189
84.9500 379.186370849609
85.9000 97.39013671875
86.1500 26.4270706176758
86.9300 412.233123779297
87.0300 16.9980239868164
87.9300 398.668975830078
88.0400 317.044525146484
88.9812 1906.88305664063
89.8700 92.5332183837891
90.1000 179.54508972168
90.2100 13.6589918136597
90.5200 18.6575584411621
91.0800 61.4609794616699
91.7500 10.8471775054932
91.8700 67.5387115478516
92.9152 80.1476898193359
93.0300 193.183822631836
93.6000 39.57763671875
93.7400 26.705493927002
94.1300 92.0228500366211
94.4000 59.2896575927734
94.6200 10.3724727630615
94.7300 89.8971252441406
95.0500 188.438827514648
95.1600 49.1397247314453
95.6800 36.0152587890625
95.8100 25.8110008239746
95.9400 29.2761116027832
96.0300 103.203247070313
96.8100 151.845764160156
97.0031 119.627975463867
97.9900 186.703567504883
98.2100 11.7416429519653
98.7700 33.4008293151855
98.9300 175.242980957031
99.1100 84.3904266357422
99.8600 110.74772644043
100.0100 238.478713989258
101.0200 2157.25219726563
101.1200 59.9482154846191
101.8600 27.7950134277344
102.0000 1515.36474609375
102.0800 707.825256347656
102.8600 91.3944778442383
102.9628 722.4736328125
103.9200 138.77619934082
104.0900 73.2033843994141
104.8300 17.0232810974121
105.0860 9.06550598144531
105.2800 15.7305974960327
105.6900 11.3949041366577
106.1000 51.940128326416
106.3300 71.2188186645508
106.4600 40.9661750793457
106.6500 128.018676757813
106.8300 191.020843505859
107.1600 15.7852544784546
107.3900 13.1689777374268
107.5800 37.2964744567871
107.7600 31.4628009796143
107.9400 88.2586288452148
108.1300 84.1338806152344
108.2500 21.3066692352295
109.0042 776.610107421875
109.5500 18.9455871582031
109.9540 85.3184661865234
110.0900 19.9656887054443
110.2100 11.6805295944214
110.8700 159.832427978516
111.0156 32.9844741821289
111.8600 60.2423896789551
111.9800 70.3735504150391
112.2200 33.2591705322266
112.9700 819.677551269531
113.0800 208.398254394531
113.6000 39.445442199707
113.7600 91.0309066772461
113.9400 147.72526550293
114.0100 492.599182128906
114.1100 187.70231628418
115.0053 2259.158203125
115.8600 41.5034370422363
116.0200 3771.296875
116.9800 1234.03649902344
117.8200 79.8913650512695
117.9800 171.819686889648
118.1600 46.2886848449707
118.7800 52.704704284668
119.0900 130.49382019043
119.4300 26.5860958099365
119.8100 15.622241973877
119.9700 14.1422624588013
120.1700 25.9730796813965
120.2900 249.692245483398
120.4800 164.894729614258
120.7700 168.066802978516
120.9100 224.278381347656
121.5700 11.769024848938
121.9200 120.686546325684
122.0300 30.8289585113525
122.7900 133.366302490234
122.9900 153.700897216797
123.9000 41.3001861572266
124.9880 110.296188354492
125.0400 319.724334716797
126.0518 3705.2978515625
127.0278 16688.76171875
127.9100 86.6260833740234
128.0234 4317.52001953125
128.9362 562.475952148438
129.0500 1722.29602050781
129.8000 22.2426357269287
130.0175 1542.51782226563
130.1800 24.9234714508057
130.8900 115.508331298828
130.9728 211.550598144531
131.0800 107.810585021973
131.9000 66.9738388061523
132.0500 118.303535461426
132.3000 14.7783679962158
132.6100 19.8091068267822
133.0200 291.424285888672
133.7300 55.7060394287109
133.9900 15.1160554885864
134.1100 49.8793601989746
135.0090 171.923095703125
135.1200 99.4696044921875
135.5800 19.4673023223877
135.8100 75.6376647949219
135.9900 318.071014404297
137.0053 1980.005859375
137.9900 560.3525390625
139.0241 1228.63903808594
140.0157 288.989715576172
140.9768 321.338500976563
141.1000 596.1279296875
141.5700 144.020355224609
141.6800 636.474731445313
141.7800 27.4220027923584
141.9551 66.934684753418
142.1100 384.473937988281
142.9026 344.187377929688
143.0388 605.203552246094
144.0200 4646.4296875
144.0500 4582.58837890625
144.9900 1304.216796875
145.8500 34.6635475158691
146.0500 134.045104980469
146.7000 67.7874221801758
146.8100 21.8034992218018
147.0800 71.918830871582
147.9900 94.3547821044922
148.7200 53.3580322265625
148.8400 15.260534286499
148.9400 219.13427734375
149.2900 15.3153171539307
149.5700 28.725305557251
149.7600 36.567985534668
149.9100 54.8144721984863
150.0100 120.659652709961
150.8200 37.651912689209
150.9806 467.579040527344
151.8000 35.4299659729004
151.9643 178.628631591797
152.0950 0.202362060546875
152.9600 399.70458984375
153.8100 49.949146270752
154.0230 428.701629638672
154.1200 36.3949584960938
155.0272 5292.18701171875
156.0053 1167.55395507813
157.0060 179.810791015625
158.0176 293.609985351563
158.1400 79.9647445678711
158.9564 1278.54638671875
159.9532 503.082244873047
160.0500 178.29801940918
160.9576 349.465087890625
161.8300 11.8163452148438
161.9700 107.800582885742
162.9300 529.090637207031
163.6000 19.233060836792
163.7600 179.771911621094
164.0000 181.385848999023
164.8400 49.2220230102539
165.0500 164.338806152344
165.6800 22.4581432342529
165.9000 27.5901679992676
166.0000 12.9220218658447
166.1200 49.270206451416
167.0200 3477.953125
167.8600 46.995044708252
168.0000 702.382446289063
168.6600 11.2970113754272
168.8300 128.672500610352
169.0600 171.468658447266
170.0500 684.311706542969
170.9600 652.089477539063
171.0900 50.3289756774902
171.9200 105.767288208008
172.0600 157.861862182617
172.1300 206.555938720703
173.0000 81.4027862548828
173.9000 49.6124687194824
174.0700 51.5811042785645
174.8400 23.0796756744385
174.9400 118.468215942383
175.9000 109.815589904785
176.0000 65.126106262207
176.1400 23.1903190612793
176.6100 17.9146347045898
176.7400 74.6160125732422
176.9500 170.873077392578
177.8400 19.9897632598877
178.0400 65.193359375
178.6300 10.439061164856
178.8100 77.1540069580078
179.1600 18.3137683868408
179.7600 11.117283821106
179.9100 15.6539306640625
180.1400 11.0361948013306
180.2500 47.4300880432129
180.7200 85.4314422607422
181.0099 124.216735839844
181.7400 61.318660736084
181.9600 226.720703125
182.6700 37.7430267333984
182.8200 96.4563140869141
182.9444 30.8968200683594
183.8400 57.9461059570313
184.0300 187.900695800781
184.7400 38.8570747375488
184.8647 9.65524291992188
184.9800 190.788345336914
185.7100 10.2674131393433
186.0600 30.8688278198242
186.9616 355.621307373047
187.1500 117.12540435791
188.0100 205.222305297852
188.1400 37.1253547668457
188.7000 15.5939626693726
188.8100 60.9245872497559
189.0200 598.753479003906
189.7300 40.1343421936035
189.9200 35.7729606628418
190.0430 55.3581848144531
190.8400 290.130279541016
190.9698 11.6247863769531
191.1100 32.184139251709
191.7100 11.9574947357178
192.0900 122.770401000977
192.7700 62.9931030273438
192.8800 233.839782714844
193.1000 75.0103378295898
193.8700 75.312614440918
194.9747 47.67138671875
195.0600 61.3440322875977
195.8000 101.339912414551
196.0300 59.8065147399902
196.8100 156.880722045898
196.9100 698.069213867188
197.7600 80.3907470703125
197.9131 34.1479949951172
198.1200 30.8168659210205
198.8400 201.811264038086
200.1100 13793.75390625
200.9900 581.413146972656
201.0700 2121.38989257813
201.8800 68.6362380981445
202.0000 237.576858520508
202.1000 222.934753417969
202.9600 204.464050292969
203.0700 23.5021076202393
203.9100 110.788856506348
204.0500 160.19221496582
204.9321 168.356506347656
205.0700 54.8947486877441
206.0700 16.2491092681885
206.7800 57.7656784057617
206.9300 584.171630859375
207.8200 69.7790679931641
208.0039 35.5178985595703
208.1300 29.3431644439697
208.9138 23.1516418457031
209.0300 130.002426147461
209.8200 27.377347946167
210.0100 0.3409423828125
210.9900 413.328125
212.0600 3685.50634765625
213.0462 2089.66381835938
213.9499 283.976379394531
214.0740 1004.84460449219
214.9862 1826.1962890625
215.9570 550.526123046875
217.7000 25.0491771697998
217.8541 15.0581359863281
217.9400 161.789291381836
218.0700 19.6328201293945
218.1800 20.1444530487061
218.9300 152.086669921875
219.8500 386.867523193359
220.7100 44.7331581115723
220.9566 264.870697021484
221.6600 15.2209281921387
221.8200 39.6595573425293
222.0000 95.0321273803711
222.7000 24.6194896697998
222.9248 20.890625
223.0500 222.467086791992
223.7000 18.5504322052002
223.9600 221.807327270508
224.0900 106.85652923584
224.9398 26.8935089111328
225.0600 366.016448974609
225.2200 27.8471240997314
226.0200 674.144653320313
226.1400 222.914352416992
226.9200 177.861770629883
227.0431 300.286651611328
227.7300 12.1641216278076
227.9500 168.625244140625
228.0900 311.561676025391
228.2300 22.1660060882568
228.9300 207.851821899414
229.0271 324.117767333984
229.1600 63.9176177978516
229.8100 61.431095123291
230.2000 15.4084005355835
230.3200 14.1808748245239
230.9100 105.502700805664
231.9100 52.810604095459
232.0300 22.4454040527344
234.8100 83.1419219970703
235.7900 56.9362144470215
235.9416 26.6079559326172
236.0300 39.4521713256836
236.9787 1699.07080078125
237.9310 757.1708984375
238.9867 682.131286621094
239.9100 46.38427734375
240.0300 1782.08178710938
240.1600 87.7597351074219
241.0600 4381.0087890625
242.0200 605.733825683594
242.1000 1470.66320800781
242.9200 140.697326660156
243.0900 338.948059082031
244.1700 65.3914413452148
244.8400 71.7889633178711
244.9500 87.6146392822266
246.0100 25.4666004180908
248.7900 14.4669494628906
248.9300 74.7652893066406
249.7600 49.3769950866699
249.9200 26.999361038208
250.1500 13.0875835418701
250.8800 171.559753417969
251.0300 215.055328369141
251.1300 79.952995300293
251.7900 35.036750793457
252.0100 203.821975708008
252.1200 64.2269515991211
252.9300 224.491744995117
253.0481 612.934631347656
253.2900 13.8966245651245
254.0000 705.680236816406
254.0900 2348.95263671875
255.0300 1017.34692382813
255.1000 559.793640136719
255.9600 111.978965759277
256.0900 1666.81091308594
256.2100 85.8143539428711
256.7800 32.0021743774414
256.9000 117.953002929688
257.0213 365.461273193359
258.1500 55.7993278503418
258.6900 11.2927503585815
258.8600 62.889705657959
259.8600 11.4348249435425
260.8300 29.8975429534912
261.8600 22.7323532104492
262.0300 27.7809505462646
262.7700 22.6065578460693
262.8800 21.6458492279053
263.8100 10.8684635162354
264.0900 66.0212554931641
264.7100 16.8709945678711
265.0000 112.61540222168
265.2018 11.4938888549805
266.0500 575.963073730469
266.1600 68.4037322998047
266.9500 169.542404174805
267.0750 913.650085449219
267.8000 27.8205451965332
267.9600 26.2903747558594
268.0800 904.362182617188
269.0700 1878.23046875
270.0800 6203.97607421875
271.0668 1496.62048339844
271.8600 73.2268829345703
271.9909 51.4747314453125
272.1100 102.975830078125
272.2400 21.5626525878906
272.7800 65.7775726318359
272.8852 6.89761352539063
273.1000 24.2540187835693
273.5500 11.7361736297607
273.8100 53.7388114929199
274.7300 50.3824691772461
275.0200 70.1807022094727
275.6300 15.5769491195679
275.9600 96.0711364746094
276.6500 29.0444049835205
276.7500 119.049835205078
277.0100 0.235565185546875
277.9800 99.8064880371094
278.0900 20.4020404815674
278.2300 16.0012969970703
278.8200 40.8784217834473
278.9145 52.9852447509766
279.1300 19.6100673675537
279.8000 93.5192947387695
279.9400 101.84765625
280.0800 128.360336303711
280.9300 192.358840942383
281.0400 136.753234863281
281.9300 208.099884033203
282.0300 348.763977050781
282.1900 38.4876174926758
282.7500 48.2222061157227
282.9300 192.537368774414
283.0900 369.356658935547
284.0900 10006.26171875
285.0867 2621.39892578125
285.7700 21.6891288757324
285.9158 40.2112121582031
286.0200 358.437561035156
286.7900 63.9695587158203
286.9100 48.7652778625488
289.8000 107.828582763672
290.0600 27.3443183898926
290.8300 82.1384582519531
291.0200 182.353912353516
292.0000 17.6904201507568
292.1100 16.5306930541992
292.7900 142.607025146484
293.0400 85.9706802368164
294.7600 103.196678161621
294.9041 272.926574707031
295.0900 49.9551467895508
296.0000 80.3109130859375
296.9589 289.12353515625
298.0000 338.498443603516
298.1100 274.203948974609
298.7600 34.1970825195313
298.9000 171.603286743164
299.0700 71.2279891967773
299.2200 69.84375
299.8700 14.7554521560669
299.9700 74.4936218261719
300.1300 16.450080871582
300.3100 17.9308414459229
300.7800 13.8962211608887
300.8900 44.6244888305664
301.0000 24.8928546905518
302.9100 30.6371459960938
303.0300 69.2775726318359
303.8800 10.2812528610229
304.0700 16.6266689300537
304.9100 31.2516593933105
306.0400 11.1559925079346
306.5500 12.0239696502686
306.9900 149.175933837891
307.1200 38.6583938598633
307.9800 89.9900665283203
308.0800 433.526641845703
308.2000 137.654815673828
308.8700 65.3320541381836
309.0300 15.7290668487549
309.1500 189.941375732422
310.1400 7903.51318359375
311.0600 522.089965820313
311.1300 1583.64575195313
311.8700 34.1648445129395
312.0100 189.604553222656
312.1400 261.140777587891
312.8400 14.8701410293579
312.9600 25.3566932678223
313.0700 42.0848159790039
314.6500 14.0115041732788
314.8000 10.7331171035767
315.0500 18.4226589202881
316.8400 10.3547611236572
318.7800 26.5076580047607
318.9700 22.1763191223145
319.1700 65.4524230957031
322.9900 20.4926834106445
323.8300 10.8302755355835
324.0700 172.778915405273
324.2100 50.2962989807129
324.3500 14.2675285339355
324.8600 12.3524513244629
325.0400 105.52116394043
326.1500 8294.6591796875
327.1389 17388.216796875
328.0500 166.026382446289
328.1500 4115.904296875
328.9400 14.3663692474365
329.0600 492.966125488281
329.1700 179.322570800781
329.9600 31.773078918457
331.0100 37.0605239868164
334.8300 44.9380378723145
334.9600 15.5463876724243
335.1100 10.7898082733154
340.8800 14.7347545623779
341.1000 104.460815429688
341.2300 28.1705150604248
341.9900 12.5662908554077
348.7200 19.9633350372314
348.9400 115.558197021484
349.0900 18.6748638153076
349.7800 10.5549602508545
350.7800 11.0046882629395
352.9000 11.9863862991333
353.0300 32.620246887207
362.7300 13.8565864562988
366.9700 26.4223251342773
367.1000 25.0905723571777
