#"+EI Scan (rt: 5.132-5.214 min, 15 scans) R3M1.D  Subtract "
#Point,X(Thompsons),Y(Counts)
40.0900 3048.76733398438
41.0703 62683.890625
42.0700 8267.57421875
43.0893 16077.5888671875
44.0360 4707.5185546875
44.9100 342.108581542969
45.0274 79.3009948730469
45.6900 13.0291738510132
45.8800 83.9450225830078
46.0100 363.990814208984
46.1200 48.2526473999023
46.1900 151.627731323242
47.0607 9189.716796875
47.8600 12.2149076461792
47.9600 143.670806884766
48.1000 107.722450256348
49.0500 195.076675415039
49.9530 490.628051757813
50.0500 868.482116699219
51.0265 4544.7255859375
52.0500 2350.29565429688
53.0592 12788.7978515625
54.0600 6008.830078125
55.0707 24597.986328125
56.0600 7227.47119140625
57.0539 6278.2578125
58.0703 6784.99169921875
59.0304 7845.8740234375
60.0200 457.846221923828
60.1100 185.121139526367
60.9200 193.572784423828
61.0420 2222.85986328125
61.9400 328.284271240234
62.0300 1906.52062988281
63.0056 3908.24438476563
64.0147 2062.04541015625
65.0394 11368.2041015625
66.0500 8621.6298828125
67.0598 35275.6328125
68.0700 6264.69677734375
69.0783 36787.48046875
70.0600 5003.13427734375
70.8100 20.0396690368652
70.9500 138.228790283203
71.0424 494.075897216797
71.1500 30.886791229248
71.9000 67.5095062255859
72.0300 257.759674072266
72.1500 178.159530639648
73.0300 3292.80908203125
74.0326 754.47802734375
74.1400 104.669105529785
75.0120 3759.994140625
76.0400 9678.16796875
77.0387 61474.8203125
78.0356 16807.609375
79.0593 61919.85546875
80.0601 14188.78125
81.0433 20174.26171875
82.0469 4658.19287109375
82.0800 1263.33679199219
83.0600 1484.86096191406
83.9400 342.520172119141
84.0600 353.890655517578
84.9322 148.828979492188
85.0300 792.220031738281
85.8100 10.6608037948608
85.9300 94.1426239013672
86.0200 279.195190429688
86.1600 102.576614379883
87.0300 1989.37707519531
88.0299 20237.638671875
89.0499 24863.55078125
90.0299 53633.01171875
91.0502 70047.484375
92.0603 56569.8359375
93.0600 97005.1875
94.0600 54135.23828125
95.0600 9373.150390625
96.0155 1014.41979980469
96.0800 1531.16223144531
97.0087 437.126190185547
97.1100 282.043304443359
97.6600 40.0560111999512
97.8900 228.763656616211
98.0100 153.905548095703
98.6900 39.061653137207
98.8600 58.302360534668
98.9900 131.939987182617
99.1600 56.4506683349609
99.6400 16.6359691619873
99.8900 169.656875610352
100.0200 150.33268737793
100.1500 17.169506072998
101.0300 2330.73852539063
102.0300 23830.56640625
103.0297 58949.67578125
104.0400 27324.72265625
105.0600 19720.255859375
106.0300 4025.6259765625
106.0600 8847.34765625
107.0800 21618.224609375
108.0702 23401.412109375
109.0678 13908.478515625
110.0500 2580.61328125
110.9500 568.259704589844
111.0600 272.646545410156
111.3000 102.643997192383
111.4700 187.545303344727
111.6600 83.0284652709961
111.9700 30.4365482330322
112.1500 104.908393859863
112.4000 15.283055305481
112.9100 621.449401855469
113.8200 82.4144821166992
113.9400 589.400573730469
114.0900 234.307586669922
115.0200 4887.7001953125
115.9400 469.301818847656
116.0400 7084.24853515625
117.0397 33030.08203125
118.0400 11205.037109375
119.0600 14065.169921875
119.9100 150.043380737305
120.0400 8326.0185546875
120.9500 530.004943847656
121.0400 4279.65673828125
122.0100 469.277221679688
122.0800 1580.23071289063
122.8300 42.7162208557129
122.9867 330.974914550781
123.0700 852.619445800781
123.7800 88.2264785766602
124.1700 35.9463119506836
124.4100 207.756896972656
124.7500 228.314804077148
124.8478 67.8115081787109
125.0144 2186.76000976563
125.2100 782.305969238281
125.4900 1230.62609863281
125.6000 1737.42211914063
125.8800 57.6785087585449
126.1600 12.8154096603394
126.9500 1220.64245605469
127.0297 713.960815429688
128.0100 2524.82275390625
128.0700 2835.90625
129.0400 31745.837890625
130.0496 24026.193359375
131.0495 125943.4375
132.0500 20400.39453125
133.0583 10511.51171875
134.0900 10941.2919921875
135.1100 77947.1640625
136.0976 22140.837890625
137.0065 14854.53125
138.0022 2330.75024414063
139.0040 678.961791992188
139.6800 46.938720703125
139.9200 566.603149414063
140.0241 247.845993041992
140.1300 14.2533264160156
141.0300 1563.91442871094
142.0219 2440.27001953125
142.1300 504.253540039063
143.0375 8484.6884765625
144.0600 20247.146484375
145.0300 352329.40625
146.0400 35774
146.9300 192.204879760742
147.0400 3888.5703125
148.0000 260.691802978516
148.1000 2434.97924804688
149.1193 8250.4892578125
150.1200 186750.46875
151.1092 22036.54296875
151.9300 150.994155883789
152.0900 1829.18408203125
153.0157 413.948303222656
153.1000 126.488815307617
153.6200 387.807983398438
153.7300 646.552185058594
153.9079 608.387084960938
154.0600 372.738098144531
155.0200 4458.83349609375
156.0500 9104.8525390625
157.0556 9437.380859375
158.0501 10892.296875
158.9841 7832.31640625
160.0200 3053.1884765625
161.0300 6058.9150390625
161.9700 433.462432861328
162.0500 719.315490722656
162.9395 129.335693359375
163.0200 383.387176513672
163.7800 22.0492839813232
163.9200 158.610290527344
164.0300 319.855895996094
164.2100 18.2970523834229
164.9300 168.037399291992
165.0288 1046.47424316406
165.8300 81.5488815307617
165.9800 379.936309814453
166.1000 191.115783691406
166.9912 1467.77819824219
168.0389 1784.50561523438
168.2900 23.397216796875
169.0096 2530.6904296875
169.0800 836.471740722656
170.0600 2619.16723632813
171.0560 13426.076171875
172.0400 3379.40063476563
173.0500 2348.08618164063
173.1600 358.558898925781
174.0600 39276.1640625
175.0600 12679.421875
175.8500 19.9694633483887
176.0500 2566.9736328125
177.0301 31037.197265625
177.9000 266.880950927734
178.0300 3386.6845703125
178.7000 16.916841506958
178.8900 109.596778869629
179.0134 398.540069580078
179.1300 107.581024169922
179.9900 758.519897460938
180.0800 231.757537841797
180.9659 1016.65167236328
181.0900 363.274993896484
182.0500 1295.48120117188
183.0500 2603.44091796875
184.0500 2222.41479492188
184.2100 44.9267120361328
185.0842 10534.3798828125
186.0700 5550.65625
187.0474 2979.56469726563
187.8500 95.4267730712891
187.9700 338.365112304688
188.0700 343.976348876953
188.2100 35.8581008911133
188.9579 236.178100585938
189.0900 154.684020996094
189.7300 42.1458320617676
189.9000 69.0756912231445
190.0100 171.875061035156
190.1100 365.278198242188
190.9778 845.801574707031
191.1000 515.210693359375
191.9621 467.291564941406
192.0567 42.7304229736328
192.8500 193.083770751953
192.9800 739.181274414063
193.0742 43.69580078125
193.8500 74.4320983886719
193.9900 461.458404541016
194.1100 308.404296875
194.2600 45.9534873962402
194.9833 1400.17199707031
195.9400 182.932479858398
196.0300 866.385559082031
196.9900 2010.15600585938
198.0500 1169.68225097656
198.9491 38.2981567382813
199.0600 4313.94580078125
199.9798 477.021118164063
200.0700 1729.23352050781
201.0026 1503.42907714844
201.6500 11.4916982650757
201.8000 62.3767509460449
202.0335 655.526245117188
202.1900 74.1779937744141
202.8000 64.086296081543
202.9625 424.922546386719
203.0700 1270.19763183594
203.9300 96.755241394043
204.0400 726.989562988281
205.0800 3559.76928710938
205.7800 50.3299980163574
206.0700 1524.44775390625
207.1139 15077.640625
208.0697 2554.38037109375
208.8100 28.1682033538818
209.0400 1535.38305664063
209.9100 73.5835494995117
210.0700 1449.05944824219
210.1400 335.749206542969
211.0088 2995.01171875
212.0500 2473.95166015625
212.1100 617.875122070313
213.1000 38636.02734375
214.0900 7156.603515625
214.9939 6097.064453125
215.9869 1597.98754882813
217.0222 1048.9990234375
218.0500 710.935119628906
218.9939 4363.3525390625
220.1400 45672.8515625
221.1100 8394.7314453125
221.8500 44.4600219726563
222.0800 2595.52734375
222.9300 444.286987304688
223.0600 1004.18450927734
223.9650 163.608245849609
224.0900 792.646911621094
224.9583 229.953948974609
225.0810 239.849472045898
225.9200 56.1419677734375
226.0556 539.394958496094
226.1500 210.733856201172
226.2400 59.1351165771484
226.8000 29.7498168945313
226.9288 305.623413085938
227.0700 309.915435791016
227.9000 71.567512512207
228.0750 836.540832519531
228.2400 206.209426879883
229.0174 778.335754394531
229.2100 135.277618408203
230.0232 488.894927978516
230.1300 546.676330566406
231.1000 4820.8046875
232.0900 6201.234375
233.1100 415965.5
234.0994 62326.1328125
235.0769 6633.46630859375
236.0500 1768.89111328125
236.1200 216.862930297852
236.9750 4428.4619140625
238.0600 6154.78955078125
238.8300 109.686653137207
238.9900 1019.47009277344
239.8600 78.4541931152344
239.9972 104.130783081055
240.0800 178.50471496582
240.5800 42.1954689025879
240.9700 1041.96728515625
241.8800 140.126403808594
242.0300 98.3542861938477
242.2200 19.3763790130615
242.9000 66.3418350219727
243.0300 54.2321624755859
243.1400 22.882080078125
243.8100 12.0536937713623
243.9500 10.6473808288574
244.1000 113.0302734375
244.2400 15.3439235687256
244.9000 84.8474044799805
245.0600 471.252593994141
245.1400 291.991607666016
245.2700 52.0781135559082
246.0000 221.631637573242
246.1300 692.361389160156
246.2400 122.449531555176
247.0300 173.817855834961
247.1400 1062.08117675781
247.2600 165.192337036133
248.1200 2706.37158203125
249.1200 5410.0693359375
250.1100 5511.72705078125
250.9900 123.819305419922
251.1300 3549.05712890625
251.9500 86.7951965332031
252.1200 2115.50561523438
252.6700 14.9306879043579
252.9764 345.793884277344
253.1400 148.02897644043
253.7000 27.2834167480469
253.8600 42.4161758422852
254.0200 211.623550415039
254.2100 77.2575759887695
254.3500 10.7496776580811
255.0000 116.468208312988
255.0900 47.5747871398926
255.9000 30.7461547851563
256.0300 84.7803955078125
256.1900 24.2216110229492
257.0100 497.825073242188
257.1100 704.671569824219
257.8500 52.6963958740234
258.0500 428.313568115234
258.1200 608.462219238281
258.2500 28.9262027740479
258.9500 115.886428833008
259.0600 872.835693359375
259.1400 959.379150390625
260.1100 1316.99353027344
260.1800 307.09326171875
261.0600 1061.21691894531
261.1500 2034.90393066406
262.0100 221.483795166016
262.1200 867.147277832031
263.0000 174.154998779297
263.1200 2906.5361328125
264.0600 1062.05383300781
264.1800 363.788726806641
265.1600 9179.9736328125
266.0300 203.802673339844
266.1500 3038.43310546875
267.0362 337.452667236328
267.1300 396.446746826172
267.2700 83.3274765014648
267.9300 35.5924949645996
268.1000 206.791519165039
268.2200 31.6534976959229
268.6500 24.0447425842285
269.0000 392.22314453125
269.1300 65.4490814208984
269.7600 12.5284481048584
269.9500 221.402740478516
270.1100 885.777648925781
270.2900 15.2448091506958
271.1000 1133.55065917969
271.9900 377.375610351563
272.0966 623.749572753906
273.0200 1081.09338378906
273.1400 245.136138916016
273.8200 101.012596130371
274.0800 550.950134277344
274.2100 57.4046516418457
274.7300 47.7531700134277
274.9374 398.995819091797
275.9052 182.074295043945
276.0800 336.842376708984
276.2800 69.7439422607422
277.0600 1043.20568847656
277.1400 1312.80993652344
278.0800 687.1435546875
278.1400 1294.06848144531
278.9800 352.005065917969
279.1100 1055.40600585938
279.2400 124.074951171875
280.1500 3731.07299804688
280.9700 72.2695465087891
281.1200 1161.57751464844
281.2100 570.220458984375
281.7600 22.1952304840088
282.0700 284.031860351563
282.2100 221.826919555664
283.0800 401.264770507813
283.1800 818.673522949219
283.4200 20.0377426147461
284.1000 1239.17614746094
285.0500 1427.52758789063
285.8800 16.0740814208984
286.1300 586.675170898438
287.0900 1481.22705078125
287.2300 175.041900634766
288.1482 7442.17529296875
289.1200 11281.927734375
290.1403 5920.79296875
290.7600 22.1326637268066
291.0793 1305.56018066406
291.1900 233.830215454102
292.0200 234.574478149414
292.0800 279.589813232422
292.2200 142.344482421875
293.0800 2203.09033203125
294.1600 190936.109375
295.1500 40330.21484375
296.1500 5224.7265625
297.1300 4611.8115234375
298.1600 80885.84375
299.1700 18911.1640625
300.1600 2819.609375
300.8600 56.1957855224609
301.0200 82.6886215209961
301.1200 151.474517822266
301.1800 174.992477416992
301.9100 17.7885570526123
302.0900 58.7951850891113
302.2100 48.3324203491211
302.8300 56.908203125
303.0000 275.948394775391
303.1600 144.016403198242
304.0200 122.857299804688
304.3800 29.6599369049072
305.0600 107.141914367676
305.1600 231.479461669922
305.9800 165.285293579102
306.1300 574.809936523438
306.2100 153.3779296875
306.8400 31.6911487579346
307.1000 724.638061523438
307.2400 42.7514724731445
308.1700 13490.0087890625
308.9600 47.80126953125
309.1500 4960.94970703125
310.0800 238.047164916992
310.1600 932.217529296875
310.9500 213.042556762695
311.1300 364.252838134766
311.2300 69.9168395996094
312.0300 358.197906494141
312.1600 2461.18041992188
312.9700 21.6831150054932
313.1200 1431.14111328125
313.2000 252.836334228516
314.1600 6427.5341796875
315.1300 2215.16528320313
315.9300 110.221611022949
316.0700 179.847427368164
316.2500 161.984268188477
316.3700 28.5106315612793
316.9700 36.6361427307129
317.0700 114.949699401855
317.2300 26.8962345123291
317.8200 12.0390625
318.0200 105.267509460449
318.1500 168.411026000977
318.2500 146.972717285156
319.0200 241.54866027832
319.1800 218.214660644531
319.3200 31.2458610534668
319.9200 35.637451171875
320.1100 125.655960083008
320.1900 215.487365722656
320.9100 22.9598140716553
321.0500 79.6741180419922
321.2000 90.8393630981445
321.3400 30.3541088104248
321.9000 12.3685884475708
322.0200 64.8412399291992
322.1600 385.454498291016
322.2700 145.137344360352
322.8800 60.03466796875
322.9900 127.423500061035
323.1000 158.421646118164
323.2000 397.899963378906
323.3200 14.6049137115479
324.0000 162.647598266602
324.1300 264.691589355469
325.1100 1072.25085449219
326.1600 63821.94921875
327.1600 16336.25390625
328.0700 607.602416992188
328.1600 2477.93188476563
329.0600 415.776672363281
329.2400 123.602569580078
329.9800 50.1748695373535
330.0900 29.4331588745117
330.2000 30.7365474700928
330.6000 40.0955390930176
330.7500 20.3696708679199
330.9100 75.3580474853516
331.0200 18.5809097290039
332.1300 33.9341430664063
332.2300 13.8601570129395
332.4500 11.627986907959
332.8900 90.651496887207
333.0600 61.9921455383301
333.4100 12.0902061462402
333.7700 19.4249897003174
334.0900 145.648010253906
334.2500 215.054382324219
335.0700 353.075073242188
335.1800 415.0947265625
335.2900 282.604949951172
336.0600 36.9624900817871
336.1600 377.228393554688
336.2800 185.937408447266
337.0300 89.7740249633789
337.1100 385.552734375
337.2200 2005.98217773438
338.2100 68651.1015625
339.2200 23281.44140625
340.2100 15311.79296875
341.2000 3503.73388671875
342.1700 2374.53271484375
342.2300 2587.1611328125
342.9800 73.8485641479492
343.1300 676.185791015625
343.2300 719.924560546875
343.8400 26.6569042205811
344.1400 102.686882019043
344.2300 99.6352996826172
344.9000 36.8956298828125
345.0400 72.2741012573242
345.1900 15.9972677230835
345.6400 11.4087810516357
346.5000 15.93004322052
346.6700 15.2967929840088
346.9600 38.6566162109375
347.0800 39.5146713256836
347.8500 16.9460067749023
348.0700 109.850784301758
348.1800 105.786323547363
348.4000 15.0734663009644
348.7000 11.4527921676636
348.8700 121.641387939453
348.9938 99.0544509887695
349.1900 12.3567905426025
349.8900 20.8034286499023
350.0500 101.339057922363
350.1900 176.037734985352
350.3300 159.222732543945
350.8100 29.9660987854004
350.9300 16.5385322570801
351.0600 72.6685104370117
351.2300 94.6960296630859
351.4200 12.0943765640259
352.0100 36.376335144043
352.1700 45.250373840332
352.3600 10.5108299255371
352.8500 96.3507308959961
352.9800 83.9801864624023
353.1800 179.761322021484
353.3700 36.5104866027832
354.2300 8109.8466796875
355.2500 193439.65625
356.2600 48735.6484375
357.2500 5987.58837890625
358.1100 168.018753051758
358.2100 222.726974487305
358.3500 95.6338272094727
359.0800 34.740177154541
359.1800 16.7533092498779
361.1500 37.0152473449707
361.8500 10.3685665130615
362.0000 63.329029083252
362.1600 345.788635253906
362.3000 146.914169311523
362.9600 17.9567699432373
363.1300 590.076232910156
363.3000 378.937042236328
364.1200 302.674163818359
364.2500 159.032440185547
364.9955 5.28948211669922
365.1500 219.822479248047
365.3300 116.414176940918
366.1000 294.305450439453
366.2000 561.782104492188
366.9600 70.5042953491211
367.1500 344.541107177734
367.3200 74.6137542724609
368.1500 913.757934570313
368.2600 503.713409423828
368.7800 11.2592716217041
369.0700 177.597137451172
369.1800 198.807907104492
369.3200 82.5517807006836
370.3300 10.6723699569702
370.7500 11.6738700866699
370.8600 18.4266471862793
371.1200 23.5803661346436
380.9700 23.2932910919189
381.1000 121.4638671875
381.2200 102.368019104004
381.3500 36.7013168334961
382.2300 6005.2001953125
383.2600 123150.609375
384.2600 32246.29296875
385.1800 435.720062255859
385.2700 4008.60546875
386.0400 40.2745323181152
386.3000 281.035491943359
386.4200 131.757659912109
387.0500 36.3144683837891
391.1900 11.4410734176636
392.2800 10.1872148513794
400.9700 39.6312484741211
401.1300 10.479941368103
404.9700 13.3075256347656
441.2300 13.6460237503052
483.1400 13.6348848342896
