#"+EI Scan (rt: 5.132-5.214 min, 15 scans) R4M1.D  Subtract "
#Point,X(Thompsons),Y(Counts)
40.0897 3086.92114257813
41.0700 61327.87109375
42.0692 6457.87939453125
42.1096 1242.76135253906
43.0796 15767.5791015625
44.0217 4632.69775390625
44.9453 6.87338256835938
45.0383 507.177124023438
45.8900 81.2865447998047
46.0291 346.332275390625
46.1400 137.590133666992
47.0582 8531.8984375
47.9900 261.798858642578
48.9014 108.630874633789
49.0413 63.2830467224121
49.9993 652.849731445313
50.0708 639.527648925781
51.0264 4680.6416015625
52.0500 2414.39306640625
53.0499 12037.751953125
54.0603 5818.603515625
55.0695 23727.84375
56.0590 7111.375
57.0567 5942.720703125
58.0699 6508.0400390625
59.0367 7707.27685546875
59.9610 415.896179199219
60.0497 283.480621337891
61.0387 2665.15649414063
61.1400 66.259162902832
62.0303 2261.34375
63.0282 4297.41796875
64.0200 2213.24145507813
65.0400 11523.84375
65.9689 93.2580413818359
66.0600 8380.904296875
67.0597 34973.42578125
68.0700 6251.14501953125
69.0799 35497.65625
70.0700 4535.7705078125
70.9155 96.9226684570313
71.0000 221.869384765625
71.0939 316.008636474609
71.4400 19.2492389678955
71.9625 190.744186401367
72.1000 198.647125244141
72.1922 9.9378719329834
73.0365 2770.69409179688
73.9025 65.1901397705078
74.0392 827.247314453125
75.0154 4172.283203125
76.0407 8931.6435546875
77.0464 60261.5
78.0379 16016.5
79.0592 58174.0390625
80.0601 13959.33984375
81.0420 19180.537109375
82.0500 5533.08056640625
83.0496 1744.85681152344
83.9087 291.280548095703
84.0304 242.51887512207
84.2100 94.7419052124023
85.0333 479.2880859375
85.1400 177.66845703125
85.8544 42.4931945800781
85.9900 486.013336181641
87.0402 1971.36145019531
88.0300 19589.013671875
89.0392 22853.2734375
90.0297 50611.69921875
91.0497 66556.734375
92.0600 55008.984375
93.0600 92246.15625
94.0600 51082.8359375
95.0380 5793.44091796875
95.0902 2835.86254882813
95.9020 14.4944458007813
96.0490 2726.46459960938
96.9997 563.913330078125
97.1455 105.736427307129
97.8671 107.275184631348
97.9750 175.052154541016
98.0700 20.832592010498
98.7410 91.84619140625
98.9800 136.842895507813
99.1416 104.513618469238
99.5900 23.58251953125
99.8522 120.934875488281
100.0400 170.584777832031
100.1400 78.0837860107422
100.8593 39.2137413024902
101.0099 1618.10388183594
101.1399 461.512512207031
102.0300 22297.494140625
103.0397 55970.21484375
104.0399 24813.39453125
105.0600 19180.068359375
106.0600 12371.314453125
107.0601 20849.583984375
108.0700 22218.552734375
109.0498 12745.1328125
109.9939 1081.93481445313
110.0682 958.384155273438
110.7698 102.132034301758
110.8701 3.40611267089844
111.0444 397.257965087891
111.1500 69.9783935546875
111.5700 78.9063949584961
111.6300 127.542068481445
111.8400 24.7029647827148
111.9717 64.0843811035156
112.1500 30.8429527282715
112.2700 29.8054790496826
112.4500 33.4572563171387
112.6580 33.7845191955566
112.8376 74.5322418212891
113.0539 201.273803710938
113.1900 125.072273254395
113.4900 21.9578266143799
113.7987 91.003547668457
114.0395 811.40673828125
115.0202 4560.42333984375
116.0397 7308.87548828125
117.0390 30865.6953125
118.0397 10721.7451171875
119.0595 12990.177734375
120.0299 8333.0078125
120.9886 1093.63146972656
121.0503 2996.8798828125
122.0495 2054.10473632813
122.9625 677.9921875
123.0959 395.671875
123.8322 61.693546295166
123.9900 57.3001136779785
124.2700 17.8524398803711
124.4400 34.9491500854492
124.7588 235.501098632813
125.0581 2710.6640625
125.2100 824.419921875
125.4700 1021.66467285156
125.6003 1993.08020019531
125.8196 220.672332763672
126.0316 88.8734588623047
127.0109 2044.50842285156
127.9477 475.55224609375
128.0600 4264.0849609375
129.0300 30526.236328125
130.0398 22675.970703125
131.0500 117330.515625
132.0599 18598.28125
133.0598 10695.5849609375
134.0998 10529.0126953125
135.0998 72715.375
136.1093 20263.5703125
137.0100 14538.103515625
138.0014 1482.44982910156
138.8429 79.9710083007813
138.9567 675.843688964844
139.0334 306.516937255859
139.6903 76.4145355224609
139.8580 181.582824707031
140.0241 211.522506713867
140.1896 272.327758789063
141.0059 1390.7529296875
141.9794 1030.9052734375
142.0504 1826.6279296875
143.0502 8364.6904296875
144.0599 18980.431640625
145.0300 325772.875
146.0400 33605.515625
146.9230 157.526947021484
147.0202 3342.85888671875
147.9988 226.867568969727
148.1000 2593.72412109375
148.9957 53.442569732666
149.1300 7098.95849609375
150.1300 174900.96875
151.1199 21935.017578125
152.0163 366.927429199219
152.0899 1524.00268554688
152.9871 198.693664550781
153.1654 326.095001220703
153.3900 41.1352615356445
153.6600 235.455337524414
153.7211 767.72021484375
153.9581 183.895889282227
154.0706 729.50537109375
155.0126 4440.5283203125
156.0491 8546.181640625
157.0473 9311.9599609375
157.9374 167.831329345703
158.0499 10185.869140625
158.9910 7798.42333984375
160.0100 2538.466796875
161.0298 5716.03564453125
161.8235 6.53116703033447
162.0101 845.246215820313
162.1200 237.112533569336
162.9544 761.153442382813
163.8300 27.0543899536133
163.9458 101.240715026855
164.0799 281.088348388672
164.8516 65.3655548095703
164.9838 591.237976074219
165.0810 241.86555480957
165.9261 206.536529541016
166.0785 336.779998779297
167.0203 1290.49353027344
167.1100 188.634017944336
167.9400 270.536163330078
168.0594 1442.70300292969
169.0488 3013.53002929688
170.0074 1312.18054199219
170.0894 1196.64819335938
171.0391 13431.59765625
171.8790 74.8809967041016
172.0400 2317.49243164063
172.1000 1024.49670410156
172.9457 15.3003807067871
173.0402 1605.6376953125
173.1300 720.125427246094
174.0600 37296.578125
175.0500 11661.6689453125
176.0499 2306.50024414063
176.1600 46.2256851196289
177.0398 28091.2109375
178.0199 3463.21850585938
178.8495 72.5127334594727
178.9913 432.792358398438
179.1100 46.6922798156738
179.8978 90.8331680297852
180.0195 597.904113769531
180.1100 229.965972900391
181.0080 1586.62731933594
181.9530 219.657440185547
182.0800 913.127380371094
182.9500 412.191314697266
183.0496 1828.77917480469
184.0601 2276.41943359375
185.0695 10174.408203125
185.8600 69.696418762207
186.0798 4997.19189453125
187.0288 1229.0126953125
187.1100 1548.91613769531
187.8723 72.6734771728516
187.9777 201.4677734375
188.0800 391.234558105469
188.6405 12.4764041900635
188.9244 185.799591064453
189.0011 210.073272705078
189.1200 67.351692199707
190.0086 258.141662597656
190.0900 267.116607666016
190.9727 741.468383789063
191.0694 664.107421875
191.7978 55.5961761474609
191.9600 316.902923583984
192.0793 224.488525390625
193.0312 941.843017578125
193.8900 191.186050415039
194.0388 527.218383789063
194.1500 13.9417333602905
195.0000 2114.0009765625
196.0403 1084.01599121094
196.9310 784.802917480469
197.0218 308.923645019531
197.9600 337.613708496094
198.0500 905.599365234375
199.0274 4338.046875
199.9690 348.752563476563
200.0502 1841.59545898438
200.9365 315.161346435547
201.0300 776.479064941406
201.8188 48.347541809082
201.9426 100.133155822754
202.0406 578.921569824219
202.1500 20.2670192718506
202.3500 21.4751071929932
203.0399 1882.88146972656
203.9133 73.5623779296875
204.0698 640.080749511719
205.0799 3288.65112304688
205.9994 405.997924804688
206.1000 1238.50842285156
207.1083 14328.755859375
207.9971 474.471588134766
208.1084 2356.07836914063
209.0256 1105.01806640625
209.1278 96.8690795898438
209.9827 222.960922241211
210.0900 1313.51892089844
211.0031 3481.26635742188
212.0082 853.444213867188
212.1100 1373.42578125
213.0994 35269.671875
214.0880 6587.10107421875
214.9927 6916.779296875
215.9815 1421.43530273438
216.9745 1010.45428466797
217.8331 78.8660430908203
217.9784 94.9594345092773
218.0810 476.900573730469
219.0301 6939.77978515625
220.1300 43807.66015625
221.0766 2720.76879882813
221.1400 4560.07666015625
221.9452 23.2484855651855
222.1000 2327.71264648438
222.9248 52.8963470458984
223.0105 938.897583007813
223.7072 12.3895645141602
224.0684 569.224975585938
224.1501 281.962524414063
224.7901 31.8879947662354
224.9443 180.210327148438
225.0818 264.637603759766
225.2800 129.414093017578
225.8656 15.8496589660645
226.0796 911.577697753906
226.8332 105.188972473145
226.9600 259.779449462891
227.0450 28.2099151611328
227.8700 101.012794494629
228.0291 735.781066894531
228.1295 135.915252685547
228.2900 69.366325378418
228.8221 63.4469451904297
228.9908 77.4999694824219
229.0822 588.04638671875
229.9276 142.070678710938
230.0900 424.863311767578
230.2203 325.009429931641
230.9937 610.451477050781
231.1000 3841.19287109375
232.1000 5440.431640625
233.1100 383933.46875
234.1095 57095.78515625
234.9997 21.0879669189453
235.1000 5474.7626953125
236.0100 833.129760742188
236.0700 911.637878417969
236.9897 5017.0166015625
238.0427 5022.4365234375
238.9539 589.560913085938
239.0484 633.474548339844
239.9523 147.559783935547
240.0791 138.829162597656
240.6000 33.6614379882813
240.9641 475.289276123047
241.1300 51.8432731628418
241.7500 46.9406852722168
241.9340 117.447807312012
242.1100 64.8451309204102
242.2147 17.624641418457
242.5300 12.6076097488403
242.7346 38.3095855712891
242.9900 122.889297485352
243.0900 64.8356628417969
243.8900 67.3736724853516
244.0600 15.1149196624756
244.2000 46.618408203125
244.8814 10.946647644043
245.0482 325.103698730469
245.1100 348.802734375
245.8300 26.3134841918945
246.0396 491.057342529297
246.1500 444.703033447266
246.2600 126.80436706543
247.0697 425.400329589844
247.1800 904.8857421875
247.6900 18.9066028594971
248.1100 2662.77001953125
249.1095 4732.24560546875
249.9500 108.496566772461
250.1100 4843.71044921875
251.0900 3036.58837890625
251.1900 227.027816772461
252.0200 199.840927124023
252.1400 1928.34753417969
252.8671 49.7653503417969
253.0126 515.210144042969
253.7776 16.154541015625
253.9884 243.421966552734
254.1100 89.5650939941406
254.2900 15.4155187606812
254.9867 131.129669189453
255.0900 24.6397800445557
255.8100 12.9729309082031
256.0592 56.5499076843262
256.9462 6.18884658813477
257.1101 1185.03308105469
257.9600 69.7285614013672
258.1300 975.118835449219
259.0498 805.170593261719
259.1300 1043.36047363281
259.9779 62.1283302307129
260.1000 607.744506835938
260.1700 903.814575195313
261.1300 2848.041015625
262.0200 87.4601745605469
262.1400 1093.68115234375
262.8499 17.4472007751465
263.0300 514.502990722656
263.1400 2270.26635742188
264.1000 1329.34387207031
265.1600 8441.70703125
266.1300 2883.38500976563
267.0298 418.624359130859
267.1217 314.717102050781
267.2500 105.034324645996
267.8396 25.4357147216797
268.0600 242.930145263672
268.2000 15.7534484863281
268.8136 66.4642181396484
268.9417 74.3581161499023
269.0486 152.148895263672
269.9109 141.012237548828
270.1093 730.405456542969
270.2300 76.4547500610352
271.0474 745.213317871094
271.1300 446.015045166016
271.8170 8.44950580596924
271.9525 84.5804061889648
272.1200 780.712707519531
272.2400 26.3983116149902
273.0310 994.470336914063
274.0490 612.518371582031
274.2300 73.6148910522461
274.9564 647.912902832031
275.7589 36.537181854248
276.0185 365.408355712891
276.1700 143.249374389648
277.0387 1827.2177734375
277.1600 304.534729003906
278.0000 93.9816436767578
278.1200 1741.82019042969
279.0076 253.921813964844
279.1200 1071.7705078125
280.1500 3342.4775390625
280.9301 4.47885131835938
281.0568 764.68017578125
281.1399 569.139221191406
281.7925 17.3256816864014
281.9964 186.720962524414
282.1300 186.589996337891
282.2600 55.7862930297852
282.9233 6.5815544128418
283.0400 706.044250488281
283.1400 437.360382080078
284.0496 540.9658203125
284.1600 608.879577636719
285.0467 935.428833007813
285.8700 64.8145370483398
286.0313 369.786560058594
286.1298 301.786804199219
287.0080 219.627502441406
287.1400 1090.90051269531
288.1500 6963.4677734375
289.1200 10135.4755859375
290.0109 163.137237548828
290.1299 5100.060546875
291.0059 475.423370361328
291.1100 1012.51373291016
291.9876 267.914733886719
292.1001 373.266723632813
292.9944 2262.57006835938
294.1600 175737.515625
295.1700 38966.81640625
296.1600 5058.1533203125
297.1191 4522.61328125
298.1600 72368.8828125
299.1700 17658.572265625
300.0900 1025.45837402344
300.1900 1547.75061035156
301.0800 215.260986328125
301.1800 273.117309570313
301.8500 29.5809898376465
302.0400 54.5744247436523
302.1200 69.4641342163086
302.8600 33.306209564209
303.0480 430.85107421875
303.9800 123.562957763672
304.0944 41.158145904541
304.2900 62.4150352478027
304.5700 29.6562900543213
304.8009 1.71804714202881
305.0200 22.8184280395508
305.1527 293.620300292969
305.8700 45.3842964172363
306.1000 486.673645019531
306.2300 313.565887451172
306.9475 111.187164306641
307.0611 174.375595092773
307.1500 427.09130859375
308.1600 12623.7216796875
309.0901 756.331970214844
309.1800 3878.11743164063
310.0200 101.240386962891
310.1602 1019.16320800781
310.9000 2.33786010742188
311.0972 490.050476074219
311.2800 44.3041572570801
312.0500 161.026458740234
312.1600 2302.34252929688
312.8400 34.3357620239258
313.0593 253.694747924805
313.1600 1245.52941894531
314.1400 6152.70458984375
314.8700 7.03148078918457
315.1300 873.068969726563
315.2100 1084.36962890625
315.4500 15.6280040740967
315.9700 48.7211570739746
316.1400 396.630523681641
316.8700 29.0187435150146
317.0600 102.066825866699
317.2400 73.6843795776367
317.3400 20.3574352264404
318.0700 73.2328643798828
318.2000 227.237762451172
318.3400 46.2323989868164
318.5200 10.124436378479
319.0100 108.595573425293
319.1497 311.139923095703
319.2800 61.8724975585938
319.8400 14.5578775405884
320.0200 173.59130859375
320.1300 199.347763061523
320.2500 57.8262748718262
321.0700 86.5696868896484
321.2300 25.7000141143799
322.1100 450.557556152344
322.2100 211.96826171875
323.0900 459.434875488281
323.2100 129.608337402344
323.3100 28.4551792144775
324.0700 169.439270019531
324.1600 194.160202026367
324.2900 69.5168685913086
324.8900 22.0809059143066
325.1300 1003.857421875
326.1500 59294.83203125
327.1600 14541.8369140625
328.0800 178.708923339844
328.1700 2787.33276367188
329.0097 201.612945556641
329.1800 190.887664794922
329.2800 62.3481407165527
329.8500 13.1256675720215
330.7761 7.81166887283325
330.8974 24.3727855682373
331.0217 36.6437301635742
331.8400 12.9265422821045
331.9500 26.385534286499
332.8105 47.2759819030762
332.9700 27.7329807281494
333.0800 13.7572221755981
333.8300 27.0482864379883
334.0800 213.067794799805
334.3300 72.1790466308594
334.8000 12.9052782058716
335.1000 253.291229248047
335.2300 816.455810546875
336.0300 130.315032958984
336.2100 406.842895507813
337.2000 2400.1943359375
338.2100 64370.0703125
339.2100 22158.41796875
340.2100 14313.2958984375
341.1600 820.997497558594
341.2300 2527.5654296875
342.0900 57.6546516418457
342.2000 4658.40185546875
343.1300 665.6015625
343.2300 646.879089355469
344.0400 70.6515579223633
344.1500 164.931442260742
344.7650 31.8632431030273
344.9500 15.4632778167725
345.1200 48.6809577941895
345.9100 12.1213722229004
346.0400 36.0298538208008
346.7800 26.3538379669189
346.8900 20.2873249053955
347.0700 20.089994430542
347.9900 27.9478397369385
348.1100 129.69319152832
348.2700 108.841514587402
348.6945 22.3318843841553
348.9186 150.858810424805
349.0559 63.0238304138184
349.2300 35.1930465698242
350.0300 162.89013671875
350.1900 247.816635131836
350.3100 56.4276275634766
350.7874 11.0195255279541
351.0600 174.204925537109
351.1900 53.7296409606934
351.4100 22.04953956604
351.7700 23.1967506408691
351.9300 20.8148078918457
352.0600 10.2610626220703
352.1700 36.719051361084
352.2900 22.357608795166
352.5000 24.011568069458
352.6475 10.4042081832886
352.8357 55.8636131286621
353.0032 104.693870544434
353.1600 97.8440628051758
354.1500 326.468170166016
354.2400 7337.0205078125
355.2500 176661.59375
356.2500 45231.6640625
357.2400 5386.376953125
358.0000 27.6383895874023
358.1500 272.357055664063
358.2700 178.798370361328
358.9753 21.5333404541016
361.9700 25.6657447814941
362.1300 185.751235961914
362.2400 335.781311035156
363.0500 78.206169128418
363.1600 570.208984375
363.2600 314.689361572266
363.8500 10.346773147583
364.0000 15.2907314300537
364.1200 221.905746459961
364.2500 194.091766357422
364.4400 25.4578037261963
364.8600 22.7080192565918
364.9900 27.0578937530518
365.1800 197.572937011719
365.2700 135.214660644531
366.1200 461.958404541016
366.2300 455.005676269531
366.9137 33.7111854553223
367.0800 85.1534729003906
367.2100 361.196258544922
368.1000 246.139022827148
368.2100 971.808227539063
368.3400 90.2972793579102
369.1100 269.908020019531
369.2700 118.264404296875
369.4300 33.8423461914063
370.0700 12.1892871856689
370.5500 12.9584465026855
370.9500 39.5452423095703
371.0800 22.783390045166
374.8400 11.2235469818115
380.0200 14.6585178375244
380.2300 10.1478357315063
380.8400 14.6838340759277
381.0800 29.8514747619629
381.2000 180.500961303711
381.9700 57.206787109375
382.2300 4976.1533203125
383.2500 116632.5234375
384.2600 30427.84765625
385.1800 673.858764648438
385.2600 3447.23168945313
386.2500 409.722625732422
387.0900 10.5144128799438
389.0200 10.2126684188843
395.8800 10.8337249755859
407.3000 11.0769929885864
