#"+EI Scan (rt: 6.426-6.543 min, 21 scans) R2M1.D  Subtract "
#Point,X(Thompsons),Y(Counts)
40.0888 177.352264404297
41.0687 18428.82421875
41.9100 38.184944152832
42.0200 1130.21630859375
42.0706 1439.04626464844
43.0688 5857.400390625
44.0235 7038.47509765625
44.9443 219.48811340332
45.0500 534.617919921875
45.2000 22.2368717193604
45.9500 174.590759277344
46.0700 63.7666244506836
46.2100 7.54169654846191
46.9172 99.3061828613281
47.0367 2429.56469726563
47.9000 26.16796875
48.0100 29.0234146118164
48.8400 90.7102432250977
49.0100 39.4525108337402
49.8800 144.738250732422
49.9800 217.124954223633
50.0900 160.024612426758
51.0130 800.287353515625
51.9100 151.773651123047
52.0200 361.795166015625
52.1400 25.5109710693359
53.0131 1354.70361328125
53.8200 33.5590476989746
53.9800 313.795379638672
54.0800 293.847503662109
54.3200 14.8205070495605
55.0615 3271.31372070313
55.9785 451.451507568359
56.0906 617.577758789063
57.0889 10955.27734375
57.8300 19.9675025939941
57.9800 238.068893432617
58.0831 666.289245605469
59.0300 2372.10595703125
60.0000 258.853576660156
60.0800 86.7311019897461
60.9500 114.444885253906
61.0300 1023.74932861328
61.7700 15.1900300979614
61.8993 15.6984710693359
61.9800 626.333618164063
62.0600 87.9528045654297
63.0190 1402.39184570313
63.7800 11.7950782775879
63.9600 369.595275878906
64.0800 211.757095336914
64.8701 87.938346862793
64.9700 374.922149658203
65.0600 232.937271118164
65.7800 19.2809658050537
65.8800 120.630165100098
66.0400 140.997634887695
67.0209 1007.28002929688
67.1500 105.867782592773
67.8300 17.386661529541
67.9600 138.817413330078
68.0800 565.579895019531
68.1900 20.4914588928223
69.0703 7534.25146484375
70.0300 1600.44555664063
70.1500 227.887237548828
70.8200 29.5057716369629
71.0200 506.838592529297
71.1000 273.111511230469
71.2900 13.9988288879395
71.7200 11.2490882873535
71.8900 84.8140487670898
72.0200 142.416366577148
72.1500 109.364784240723
73.0300 959.53955078125
74.0248 673.315490722656
75.0182 1875.07592773438
75.9700 704.129577636719
76.0538 850.315002441406
76.1700 41.1936569213867
77.0300 4943.23046875
78.0341 2320.59521484375
78.9926 450.174926757813
79.9700 143.19157409668
80.0900 101.215217590332
80.9753 349.605224609375
81.9300 304.851654052734
82.0300 263.987945556641
82.1100 60.1156578063965
82.9500 150.422546386719
83.0300 829.344421386719
83.6000 8.32253265380859
83.8100 8.56482315063477
83.9300 80.8562927246094
84.0500 172.95246887207
84.1500 138.135345458984
84.7000 37.8154716491699
85.0326 175.756713867188
85.1300 156.403442382813
85.7800 24.75634765625
86.0000 488.320770263672
86.1100 418.088958740234
86.8500 72.447021484375
86.9862 453.008636474609
87.0700 444.194183349609
88.0200 2351.35668945313
88.1300 99.9114151000977
88.9738 366.713073730469
89.0400 8211.951171875
90.0000 1676.6904296875
90.9862 1111.27099609375
91.6600 43.2333908081055
91.8500 46.736701965332
91.9700 144.066116333008
92.1500 108.890739440918
92.2600 7.73461675643921
92.4800 12.7169237136841
92.8600 103.618957519531
92.9700 224.331130981445
93.6700 8.49513912200928
93.8100 8.02425765991211
93.9800 102.490234375
94.2200 10.7508945465088
94.7400 58.3494338989258
95.1000 81.574836730957
95.7300 7.38801050186157
95.8638 73.2782821655273
96.1900 69.21435546875
96.9700 334.226409912109
97.1300 84.3128051757813
97.8100 61.8505516052246
98.0100 217.600982666016
98.9500 411.698303222656
99.0600 194.237350463867
99.6200 11.1616487503052
99.7900 26.6892967224121
99.9400 435.498046875
100.0700 285.56494140625
100.2200 27.9346027374268
101.0400 4002.326171875
101.1500 69.3234176635742
102.0200 9619.6923828125
103.0232 4487.85302734375
103.7400 8.88653945922852
103.8900 177.184066772461
103.9800 474.188140869141
104.1200 307.453277587891
104.7900 33.7872161865234
105.0900 184.399353027344
105.9200 55.5485916137695
106.0000 177.313400268555
106.1300 127.372375488281
106.7400 121.423690795898
106.9200 57.9154815673828
107.5700 7.7572660446167
107.8100 8.40915489196777
108.1000 74.2174606323242
108.2400 14.7398624420166
108.9631 681.594970703125
109.0500 544.459655761719
109.8500 83.8456649780273
109.9900 277.487396240234
110.7900 83.6543426513672
111.1100 23.7624263763428
111.9700 283.393493652344
112.0900 147.181915283203
112.8300 36.6301689147949
112.9400 213.459197998047
113.0200 443.972015380859
113.1300 92.5359497070313
113.8400 38.704216003418
114.0300 4225.1943359375
115.0270 13355.224609375
116.0307 26168.234375
117.0292 4485.66162109375
117.8700 116.249908447266
118.0389 1526.92004394531
118.9300 162.603790283203
119.0410 212.18473815918
119.7500 43.9333724975586
119.9000 12.9126720428467
120.0200 82.396354675293
120.3800 8.42975044250488
120.8184 34.3413467407227
120.9300 43.669921875
121.0500 158.794723510742
121.2000 61.048713684082
121.6500 62.6651191711426
121.8100 93.9660263061523
122.0200 23.9794025421143
122.8956 183.416244506836
123.0300 130.926315307617
123.8700 87.2576751708984
124.1200 27.4436550140381
124.9400 316.093017578125
125.0900 58.014591217041
125.6100 11.4493389129639
125.8900 61.5927619934082
125.9700 161.871932983398
126.0800 176.006713867188
126.8900 289.856719970703
126.9700 367.138031005859
127.0500 993.556945800781
128.0300 11563.0732421875
128.1400 136.796493530273
129.0393 20648.013671875
130.0405 16944.2890625
130.8900 36.3416404724121
131.0386 2899.19311523438
131.1100 121.404067993164
131.8500 62.7974281311035
131.9900 630.201171875
132.1200 142.819259643555
132.9662 84.4371948242188
133.4400 12.1214275360107
133.9800 114.325378417969
134.1400 21.6863975524902
134.8900 393.735717773438
135.1000 120.550361633301
135.7400 31.4892864227295
135.8900 131.355606079102
137.0042 6251.669921875
137.9400 713.415710449219
138.9200 335.543487548828
138.9902 30.2554931640625
139.7900 54.1863441467285
139.8929 131.288269042969
140.0100 563.608093261719
140.1300 56.5086364746094
141.0300 1145.81188964844
142.0400 2534.08251953125
143.0295 20108.85546875
144.0300 77220.8125
144.9700 586.039428710938
145.0300 8413.1923828125
145.7500 12.3493766784668
145.9000 109.272529602051
146.0000 794.0546875
146.2000 34.9230079650879
146.8700 251.085662841797
147.1200 21.3831748962402
147.5200 10.7288799285889
147.7100 10.8964786529541
147.8500 21.8120098114014
147.9500 222.519500732422
148.0500 256.374359130859
148.8600 51.7944221496582
148.9683 85.170539855957
149.1200 51.8281135559082
149.7400 8.78344249725342
149.9000 76.3032684326172
150.0500 64.1231918334961
150.9200 370.887115478516
151.8400 99.700553894043
151.9400 157.898803710938
152.0800 102.055625915527
152.2100 47.8553581237793
152.9582 177.659240722656
153.0500 343.393829345703
153.7900 32.9718551635742
153.9900 767.50634765625
154.0695 1504.66723632813
155.0300 5002.6455078125
156.0439 4437.01318359375
157.0253 6034.26611328125
158.0500 3169.36499023438
158.9759 2697.2509765625
160.0019 537.808715820313
160.8400 286.828735351563
161.0500 234.309265136719
161.7400 28.0166015625
161.8500 24.6402549743652
162.0900 35.963436126709
162.8500 314.666351318359
163.6300 19.0182762145996
163.8300 38.1247825622559
164.1000 46.2096290588379
164.7700 29.2209911346436
164.9900 213.652389526367
165.9000 199.304077148438
166.0200 71.3108749389648
166.1400 50.7585525512695
166.8300 69.2053604125977
166.9563 227.836944580078
167.0449 831.707763671875
167.9751 461.595703125
168.0700 1102.93322753906
169.0000 625.654907226563
169.0800 597.040649414063
170.0200 5713.02587890625
171.0300 2227.93823242188
171.7000 10.6706323623657
171.8200 56.3911819458008
171.9400 224.849655151367
172.0900 541.388000488281
173.0100 2418.890625
173.0500 5314.78515625
174.0200 1000.13970947266
174.1000 710.998657226563
174.7600 33.8939018249512
174.8800 31.6032543182373
175.0000 204.512161254883
175.1400 34.7907638549805
175.9300 277.156707763672
176.0300 430.386901855469
176.7100 27.2119369506836
176.8000 71.4088287353516
177.1300 41.9625053405762
177.7700 38.594539642334
177.9400 61.7239227294922
178.1600 16.4204254150391
178.3000 7.74568319320679
178.5400 9.01909160614014
178.7100 14.4120922088623
178.8800 83.8572769165039
178.9900 142.416320800781
179.1200 53.9761047363281
179.6600 7.95571327209473
179.7900 26.5465354919434
179.9100 19.6440734863281
180.0300 271.714477539063
180.1400 8.04973316192627
180.3500 17.600004196167
180.8000 41.1855697631836
181.0000 603.302124023438
181.8300 21.9593238830566
181.9835 381.544036865234
182.0700 476.520050048828
182.9800 470.781097412109
183.0700 593.182861328125
183.9700 602.238708496094
184.0632 1953.12280273438
184.8100 45.1844902038574
185.0053 1281.63598632813
185.7700 20.6248455047607
185.9100 140.569061279297
186.0300 506.381591796875
186.9600 522.523376464844
187.0500 222.558074951172
187.8800 54.2564392089844
188.0300 74.4051666259766
188.9600 199.155059814453
189.0600 15.8100891113281
189.2200 12.9503841400146
189.8900 42.7135963439941
190.1700 9.26480960845947
190.8622 147.941223144531
190.9941 38.0838012695313
191.6400 8.11370277404785
192.0200 156.549133300781
192.1100 40.5791778564453
192.9200 782.317993164063
193.7800 35.3558540344238
193.9700 116.234466552734
194.0459 6.93209075927734
194.8500 48.9922218322754
194.9748 110.3798828125
195.7400 21.1242027282715
195.9775 147.261871337891
196.0600 236.781127929688
196.9353 857.09912109375
198.0500 1392.23034667969
199.0100 774.381958007813
199.8100 16.8133525848389
199.9800 371.906280517578
200.1300 239.94108581543
200.8200 64.2868347167969
200.9100 496.046417236328
201.6200 9.88261890411377
201.8300 55.8527145385742
201.9960 253.689331054688
202.0900 69.7995910644531
202.7300 31.6184730529785
202.9900 416.012634277344
203.1200 84.0139617919922
204.0200 599.668823242188
204.1000 415.584533691406
204.2900 14.8058528900146
204.6400 24.1890926361084
205.0700 2939.58276367188
205.8500 12.8294239044189
206.0500 597.046997070313
206.1400 944.203308105469
207.0319 1030.33959960938
207.7100 24.3588829040527
207.9400 188.438415527344
209.0190 128.71565246582
209.0900 96.7385635375977
209.7900 27.0277614593506
209.9700 186.221160888672
210.0891 324.870758056641
210.9868 1275.1689453125
212.0739 4846.33837890625
212.8500 69.4661026000977
213.0285 1154.39685058594
213.9976 165.418807983398
214.1000 380.114593505859
214.9857 3051.4833984375
215.9633 659.562744140625
217.0000 905.095581054688
217.7200 22.3025989532471
217.9105 61.5401000976563
218.0600 134.234008789063
218.9485 1301.599609375
219.9555 459.533569335938
220.8000 153.294403076172
220.9462 242.826110839844
221.8200 41.7737159729004
222.0000 10.5825634002686
222.1500 10.2534227371216
222.6600 73.4902725219727
222.9606 254.582855224609
223.1400 48.8205223083496
223.6500 8.93524742126465
223.7900 50.1963691711426
223.9500 170.685592651367
224.0600 10.2088718414307
224.5800 7.4896354675293
224.7100 97.122802734375
224.9900 305.017242431641
225.1500 17.0002822875977
225.8600 76.0123901367188
225.9800 124.239517211914
226.1200 99.1281967163086
226.3100 87.8227691650391
226.4400 26.1162605285645
226.9700 403.938110351563
227.1700 106.864707946777
227.7600 48.1196632385254
227.9700 278.737762451172
228.0800 178.793426513672
228.2600 99.7538604736328
229.0500 1123.25964355469
229.9800 204.786972045898
230.0908 5084.62158203125
231.0500 432.825622558594
231.0997 4143.056640625
232.1098 387205.4375
233.1000 68908.3359375
234.0870 6251.04541015625
235.0000 5.3385009765625
235.0700 495.669128417969
235.7000 9.37083339691162
235.8400 84.877082824707
235.9900 149.506362915039
236.9745 1468.46728515625
237.9273 231.12744140625
238.0400 148.07926940918
238.8600 134.981109619141
238.9562 146.932312011719
239.8100 32.9132118225098
239.9500 119.562652587891
240.1100 78.3409118652344
240.2400 23.4259185791016
241.0379 1316.48767089844
241.7200 7.45775365829468
241.9100 133.680953979492
241.9734 56.6577758789063
242.1000 9.57020664215088
242.2100 33.4465141296387
242.9600 188.68098449707
243.1287 63.9555740356445
243.8200 41.4428100585938
243.9100 28.9016170501709
243.9900 95.5354232788086
244.1300 143.426803588867
244.6500 11.8881988525391
245.0300 183.259307861328
245.2200 14.9074287414551
245.7600 10.3675203323364
245.9300 96.8059768676758
246.0700 168.83708190918
246.2400 24.0741291046143
246.9500 156.728790283203
247.0400 172.093734741211
247.1900 77.5269775390625
248.0500 668.27099609375
248.1400 1702.87646484375
248.8700 25.0131721496582
249.0200 312.387603759766
249.1400 222.832824707031
250.0000 16.8796977996826
250.1000 59.9652214050293
250.6900 12.1210536956787
250.8300 18.979907989502
251.1000 42.4443397521973
252.0800 16.0554847717285
252.8600 41.2615699768066
253.0600 73.2531127929688
253.7400 24.9605312347412
253.8900 33.4452705383301
254.0500 72.980339050293
254.3200 15.7399682998657
254.8400 39.9307441711426
254.9800 55.8020820617676
255.0500 38.5652084350586
255.1800 26.1430702209473
256.0900 27.2232227325439
256.7200 21.0355167388916
256.9900 164.071228027344
257.1200 38.7848320007324
257.9800 102.363792419434
258.0900 116.503089904785
258.2000 37.3873710632324
259.0500 1015.67633056641
259.1600 475.019897460938
260.1000 4516.9228515625
260.7600 22.8295745849609
260.9100 41.6516189575195
261.0700 909.020202636719
261.1600 284.289581298828
261.8600 43.4593544006348
262.0600 202.579956054688
262.9300 23.2110214233398
263.0300 64.4449996948242
263.8600 7.44896507263184
264.0000 32.7313232421875
264.6100 7.49166059494019
264.7200 15.37269115448
264.8500 22.2889823913574
265.0000 43.8162384033203
265.1000 20.1187343597412
265.7400 9.49589729309082
265.8900 21.1830234527588
266.0600 62.1529235839844
266.1900 44.2801170349121
266.7700 81.6939086914063
267.0512 141.664260864258
267.2300 20.2329616546631
267.8600 11.4601945877075
268.0100 206.928359985352
268.1400 242.991973876953
268.3700 21.4325218200684
268.8100 32.1279983520508
269.1000 214.015625
269.8600 73.7197875976563
269.9700 121.120712280273
270.0600 65.4883117675781
270.8200 217.42204284668
271.0100 211.852172851563
271.1500 27.713228225708
271.7300 28.9454460144043
271.8100 42.3773880004883
272.0200 147.536163330078
272.9700 445.041198730469
274.0200 98.7494888305664
274.1300 34.1108436584473
274.8200 94.1534957885742
274.8954 63.3229370117188
275.0200 144.470962524414
275.8300 58.272575378418
275.9600 145.187194824219
276.1700 11.2792797088623
276.7900 68.3789978027344
277.8500 63.0171928405762
277.9700 24.7710018157959
278.1200 10.9584827423096
278.4900 10.0090618133545
278.7700 59.1603775024414
278.8700 132.130554199219
279.2100 10.8437175750732
279.8600 8.90151405334473
280.8700 104.873268127441
281.9300 43.4588088989258
282.0800 35.5829544067383
282.5700 13.8603372573853
282.8600 95.5498580932617
283.0200 17.6931648254395
283.1700 11.4008531570435
283.7900 31.1271705627441
283.9700 44.4346580505371
284.2000 18.1060085296631
284.9805 267.873962402344
285.1200 255.730072021484
286.1200 3387.8701171875
287.1200 5963.47216796875
288.1100 18258.27734375
289.0600 4949.6044921875
289.7600 25.9865341186523
290.0000 640.259643554688
290.1500 116.987342834473
290.2500 48.7326698303223
290.7500 76.6285552978516
290.8800 23.6132068634033
290.9900 342.228271484375
291.7600 8.03994274139404
292.0100 64.799690246582
292.9609 408.53369140625
293.9406 450.240417480469
294.1000 47.0003242492676
294.7900 66.581169128418
294.9157 133.532135009766
295.6700 18.6907558441162
295.8500 52.5932502746582
296.0800 86.7555618286133
296.9500 624.081909179688
297.8900 153.006271362305
298.0100 22.5901107788086
298.8400 58.0616035461426
298.9600 55.2052001953125
299.0800 113.352867126465
300.0000 87.1892242431641
300.1800 67.6762847900391
300.5300 11.5851945877075
300.7900 54.4066581726074
300.9300 112.274742126465
301.0400 50.5580940246582
301.1500 91.1135635375977
301.6900 8.16285419464111
301.8100 15.7896375656128
302.0600 37.81640625
302.1700 34.5850486755371
302.6800 10.816385269165
302.9900 100.598037719727
303.0800 106.709854125977
303.1800 240.959518432617
303.8900 24.667179107666
304.0300 231.715240478516
304.1700 190.94367980957
305.1300 2694.38061523438
305.9200 75.8481597900391
306.0800 244.102401733398
306.1800 276.804565429688
306.2900 23.0093231201172
306.7100 37.6374588012695
306.8900 58.6470489501953
307.0300 14.2085113525391
307.1600 47.0469398498535
308.1000 121.293518066406
309.1300 11.9276151657104
309.3200 11.2433300018311
309.7300 8.05039310455322
309.9400 9.95444965362549
310.1000 10.9000816345215
310.9800 78.7929458618164
311.1500 45.7000389099121
311.8100 21.3727588653564
311.9600 7.27515172958374
312.0700 58.9775161743164
312.2700 7.88463544845581
312.8400 24.169828414917
313.1100 18.0984153747559
314.8600 51.2088394165039
315.0300 105.913146972656
315.1500 111.758941650391
315.9100 57.9212226867676
316.0800 68.7269134521484
316.2100 92.2623748779297
317.1700 10756.990234375
318.1600 2188.00415039063
318.2200 889.648803710938
318.9600 55.4792900085449
319.1100 355.509979248047
319.2200 81.3565368652344
320.0100 7.97130060195923
322.9100 9.26807689666748
323.1700 26.566499710083
323.9500 20.5820178985596
324.0800 47.3162040710449
324.9800 19.4847869873047
325.9500 10.1286725997925
326.0800 33.1532173156738
326.2500 9.8077974319458
326.9800 54.1042251586914
327.1400 100.612121582031
328.0400 168.925079345703
328.1600 253.664779663086
328.2600 67.9907073974609
329.0100 139.707244873047
329.1100 1636.76379394531
329.2300 235.315292358398
330.0000 178.938720703125
330.1300 223.168914794922
330.2600 16.2006683349609
330.9900 82.4831924438477
331.1500 26.7286376953125
331.8000 7.5147762298584
332.7200 25.6523170471191
332.9300 10.6353740692139
333.0300 20.3378753662109
334.6300 8.1124153137207
334.8200 17.9022464752197
336.8700 12.8457727432251
340.9400 19.949893951416
341.0900 60.7058029174805
341.2400 56.8172950744629
341.3600 11.6297264099121
342.1700 45.7064628601074
343.0600 23.151309967041
343.1700 1273.5556640625
343.9900 79.1016082763672
344.0800 186.286193847656
344.1800 1317.48217773438
344.8500 11.2580375671387
345.1100 289.713134765625
345.2000 60.8248100280762
345.3300 33.0978584289551
346.0300 84.8843460083008
346.1300 292.747772216797
346.2200 105.433662414551
346.9100 9.00539112091064
347.0000 77.7870025634766
347.1100 13.2521829605103
347.2800 44.1708068847656
347.8100 8.29869270324707
348.6900 26.6086578369141
348.8400 71.0705108642578
349.2800 8.00912570953369
349.9600 30.8854522705078
350.8300 32.4622840881348
352.6500 10.0302448272705
352.8000 39.850269317627
352.9200 69.6197967529297
353.6400 8.55195426940918
357.1800 7.7737135887146
358.8700 16.1032009124756
360.0400 7.44686794281006
360.2300 7.86784505844116
361.2200 11276.958984375
362.1700 1282.46105957031
362.2400 1368.80993652344
363.1000 193.139389038086
363.2500 291.034271240234
363.9100 16.9710140228271
365.0300 7.60920333862305
366.7400 9.37563991546631
366.8600 30.0623512268066
367.1600 12.4031085968018
370.9200 49.2308006286621
380.9800 10.4576034545898
400.8200 12.0388879776001
400.9700 10.4310264587402
401.1600 11.3787460327148
