#"+EI Scan (rt: 6.415-6.525 min, 20 scans) R6M1.D  Subtract "
#Point,X(Thompsons),Y(Counts)
40.1062 486.815887451172
41.0695 20438.33203125
42.0602 2710.47216796875
43.0794 6463.39892578125
44.0407 8172.2744140625
44.9393 87.0341644287109
45.0299 737.177307128906
45.9721 129.603073120117
46.0500 102.130714416504
46.1816 8.34589195251465
47.0234 2907.57885742188
47.9100 20.9790229797363
48.0800 37.3310470581055
48.8500 18.8080215454102
48.9523 75.8169250488281
49.0787 11.6128940582275
49.8792 67.240234375
49.9800 204.308090209961
50.0948 182.161773681641
51.0101 1025.3681640625
51.8900 116.956199645996
51.9595 168.40901184082
52.0698 173.738296508789
53.0133 1236.08227539063
53.0818 343.500274658203
53.8936 41.3547325134277
54.0304 464.076171875
54.1300 169.169799804688
55.0487 3534.26098632813
56.0360 1003.87524414063
56.1275 273.112670898438
57.0881 12120.671875
58.0083 449.265716552734
58.1053 401.759765625
59.0360 3444.79052734375
59.8863 95.7099075317383
60.0003 131.966247558594
60.9514 279.381561279297
61.0405 920.4140625
61.9335 394.464752197266
62.0406 372.903594970703
63.0064 1616.7890625
63.9782 302.781036376953
64.0630 170.173477172852
64.9328 331.076232910156
65.0885 445.697814941406
65.8772 91.105224609375
65.9985 148.653900146484
66.1200 52.881519317627
66.9700 22.2942886352539
67.0612 1230.55676269531
68.0297 594.310180664063
68.1277 131.547073364258
69.0678 8159.42333984375
69.9511 21.8871688842773
70.0601 1945.12426757813
70.9800 424.972686767578
71.0609 398.275939941406
71.8425 44.8747634887695
71.9700 173.739837646484
72.0858 90.1063613891602
72.2188 5.11063766479492
73.0379 1983.7578125
74.0158 716.489929199219
75.0224 2409.30834960938
75.9952 1436.08666992188
76.0783 493.225738525391
77.0360 5005.3349609375
78.0259 2591.3896484375
78.8800 378.638519287109
78.9943 55.3422241210938
79.1100 144.416549682617
79.7354 18.2765731811523
79.8289 9.4515962600708
79.9733 107.358009338379
80.1187 31.7285614013672
80.2886 12.9130725860596
80.9856 722.68359375
81.9297 298.605163574219
82.1068 209.656005859375
82.9330 312.682708740234
83.0611 495.396514892578
83.6600 8.47337913513184
83.8600 41.7427291870117
84.0000 323.308227539063
84.0900 106.069107055664
84.2500 29.9117031097412
84.9800 74.7695770263672
85.0823 244.457000732422
85.8434 36.7796211242676
85.9500 188.241424560547
86.0700 879.238098144531
86.9395 539.846069335938
87.0416 455.057312011719
87.9997 2469.25268554688
88.1400 71.952392578125
89.0295 9641.6748046875
89.9654 624.762817382813
90.0475 907.988586425781
90.9291 122.561248779297
91.0341 882.597290039063
91.8200 75.2385406494141
91.9770 167.425384521484
92.1200 34.6716728210449
92.9235 145.060562133789
93.0600 42.6547241210938
93.8600 92.7238922119141
94.0409 81.499870300293
94.2600 10.5689220428467
94.6644 23.8440914154053
94.9375 166.440063476563
95.7988 15.9793758392334
95.9233 77.1326446533203
96.0221 127.192108154297
96.1630 25.1323299407959
96.3340 4.49309110641479
96.9375 3.66032409667969
97.0400 284.300231933594
97.1115 6.31657028198242
97.7273 10.757495880127
97.9148 87.0505523681641
98.0700 176.396942138672
98.9288 419.127746582031
99.0688 214.254623413086
99.2663 8.47502994537354
99.9504 297.54638671875
100.0600 540.487915039063
100.9400 234.628860473633
101.0300 4097.39111328125
102.0299 10789.75390625
103.0096 4996.49560546875
103.9117 243.570343017578
104.0100 644.117797851563
104.1516 25.920166015625
104.7962 18.9806003570557
104.9367 123.228042602539
105.0326 93.6490631103516
105.7488 49.9632186889648
105.9105 54.7681655883789
106.0400 120.735794067383
106.1500 10.4263744354248
106.3000 26.6665592193604
106.7200 24.4190921783447
106.8308 8.72692108154297
106.9427 82.0464630126953
107.0610 28.5143966674805
107.5100 13.3915147781372
108.0198 38.1999015808105
108.1917 35.9530563354492
108.9977 896.881225585938
109.8150 63.8529090881348
110.0900 62.0453033447266
110.9315 171.766815185547
111.0552 14.9387397766113
111.6920 9.88420486450195
111.8600 91.7934188842773
111.9700 185.333709716797
112.0400 132.090270996094
112.9500 496.24365234375
113.0760 178.359771728516
113.9700 844.216186523438
114.0300 3525.87548828125
115.0295 15283.736328125
116.0300 28271.2265625
117.0300 5338.26806640625
117.8343 2.81448745727539
117.9500 181.359832763672
118.0390 1547.60131835938
118.1300 183.231323242188
118.9300 42.2356109619141
119.0400 250.810882568359
119.7200 58.6700057983398
119.8800 73.1349029541016
119.9954 0.491035461425781
120.1700 35.5233459472656
120.5500 15.5934400558472
120.7332 0.996769905090332
120.9971 150.559020996094
121.1000 107.641067504883
121.2040 11.6934814453125
121.4300 44.5439758300781
121.6500 100.572006225586
121.7900 8.42563056945801
121.9276 27.6903419494629
122.0739 34.5490188598633
122.9533 168.567962646484
123.1100 41.3786506652832
123.6810 4.50548601150513
123.9234 11.6783885955811
124.0300 86.2847747802734
124.7822 31.1621894836426
124.9209 163.756408691406
125.8828 142.930908203125
126.0200 247.424224853516
126.2363 26.7434215545654
126.8159 34.994255065918
126.9466 276.976837158203
127.0306 1113.74169921875
128.0300 12455.4482421875
129.0292 22131.908203125
130.0399 18496.5234375
131.0283 3184.2197265625
131.8300 76.4225692749023
131.9700 291.111724853516
132.0506 440.9091796875
132.8893 33.3307952880859
133.0227 292.372528076172
133.7142 0.553310394287109
133.9578 62.1133918762207
134.0500 109.590476989746
134.9849 708.414672851563
135.7138 9.56758594512939
135.8700 163.770767211914
136.0375 45.3561859130859
137.0159 7439.826171875
138.0012 603.623046875
138.1400 90.5260467529297
138.9463 588.876098632813
139.0539 84.158203125
139.8779 127.752914428711
139.9721 487.157073974609
140.0706 360.572021484375
140.9429 678.681640625
141.0291 793.496337890625
142.0487 2776.42993164063
143.0295 22220.216796875
144.0300 83519.078125
145.0296 9449.4599609375
145.9296 134.679595947266
146.0101 844.046264648438
146.1500 31.8319816589355
146.7887 148.161865234375
146.9300 93.6472015380859
147.8400 117.354598999023
147.9996 558.492858886719
148.6200 12.7866315841675
148.7537 14.6432695388794
148.9441 79.7516937255859
149.0700 59.5934944152832
149.8500 36.0584831237793
149.9700 97.0036010742188
150.0600 10.1325531005859
151.0052 563.942626953125
151.6400 30.9250545501709
151.8294 46.4855003356934
151.9400 95.8689422607422
152.0534 133.318176269531
152.9895 563.797973632813
153.9120 182.989151000977
154.0399 2398.16235351563
155.0135 5906.5478515625
156.0502 4843.26318359375
157.0173 6675.03173828125
157.9144 49.4874649047852
158.0401 3521.63232421875
158.9700 2759.71533203125
159.9500 210.563415527344
160.0216 468.622161865234
160.9200 460.674407958984
160.9766 122.220520019531
161.8300 29.8493843078613
161.9100 76.9625244140625
162.0404 34.9064483642578
162.9662 347.537811279297
163.8540 20.1203002929688
163.9925 144.864532470703
164.7100 20.7356452941895
164.9928 270.951477050781
165.1200 11.3223037719727
165.8113 85.5216827392578
165.9600 113.100082397461
166.0800 102.143859863281
166.2554 7.3907413482666
166.9802 1071.64331054688
167.0700 484.893280029297
167.9900 1164.50244140625
168.0486 562.709655761719
168.7545 29.8349704742432
168.8909 33.6278915405273
169.0462 1204.85339355469
170.0398 6150.4072265625
170.9694 643.468688964844
171.0600 1404.96704101563
171.8871 192.511749267578
172.0401 620.029541015625
172.1200 81.5746841430664
173.0400 8393.841796875
173.8900 40.2400856018066
174.0400 1810.00158691406
174.7900 18.283145904541
174.9100 109.496398925781
175.0480 166.776351928711
175.1600 18.6324253082275
175.7471 6.67113494873047
175.9390 277.566284179688
176.0300 453.195251464844
176.7687 12.7223930358887
176.9715 161.260559082031
177.1700 9.99787712097168
177.7994 43.0734558105469
177.9875 73.2635116577148
178.8090 63.7437515258789
178.9407 49.2214622497559
179.0601 60.3289108276367
179.7100 32.817684173584
179.9875 247.007583618164
180.1000 217.736206054688
180.7712 26.4609298706055
180.8943 175.756713867188
180.9969 276.775726318359
181.6500 8.66167640686035
181.8735 13.0622425079346
182.0364 744.277282714844
182.1400 162.595306396484
183.0343 970.462829589844
183.8600 111.183570861816
184.0200 1900.7509765625
184.0900 828.341003417969
185.0182 1622.24487304688
185.0700 347.744323730469
185.9144 68.6468505859375
186.0210 551.677856445313
186.1300 87.9911499023438
186.9952 439.895843505859
187.7544 8.7140645980835
187.9400 89.5780639648438
188.0411 32.819580078125
188.1400 59.8898010253906
188.8223 41.1200103759766
188.9669 183.264083862305
189.9500 24.6970901489258
190.1000 30.6049194335938
190.9576 288.758483886719
191.1000 50.6429557800293
191.8406 108.924438476563
191.9688 89.0786590576172
192.9400 189.958648681641
193.0300 224.452194213867
193.9029 97.8747406005859
194.0500 127.058044433594
194.9517 400.318359375
195.0200 524.60107421875
195.7267 13.3023519515991
195.8235 27.6456680297852
195.9422 86.2700042724609
196.0507 353.006011962891
196.9531 699.711547851563
198.0505 1444.28564453125
198.9500 407.919219970703
199.0394 799.073547363281
199.8741 133.273971557617
199.9860 234.836883544922
200.1100 185.434234619141
200.9818 411.711608886719
201.7997 47.3387107849121
201.9674 89.4797821044922
202.0718 169.70849609375
202.2000 22.0259132385254
202.8239 83.0479278564453
203.0058 280.527252197266
203.8700 85.2866592407227
204.0100 564.630554199219
204.1300 481.352111816406
205.0012 425.496032714844
205.1001 2497.05883789063
205.8979 7.97007369995117
206.0299 589.756103515625
206.1300 1076.197265625
207.0019 580.979370117188
207.8980 49.9515075683594
208.0442 78.1521301269531
208.1551 19.6764030456543
208.9707 248.075759887695
209.1313 117.548873901367
209.7100 22.2031497955322
209.9262 101.766670227051
210.0701 534.454345703125
211.0000 1769.65087890625
212.0822 5458.5888671875
213.0324 1575.95678710938
213.9559 272.604187011719
214.0766 384.052001953125
214.9800 3231.2060546875
215.9296 1175.88330078125
216.9542 384.099395751953
217.7083 5.03908348083496
217.9802 227.16015625
218.9514 836.538330078125
219.9534 154.763824462891
220.7560 33.9531326293945
220.8900 104.585021972656
221.0131 148.985214233398
221.7400 11.0650863647461
221.8743 65.3541259765625
221.9900 50.9373054504395
222.3500 24.0660552978516
222.8442 69.4763946533203
222.9757 97.6389770507813
223.1800 25.1816940307617
223.7400 73.6421356201172
223.9197 27.1559772491455
224.0700 69.4973297119141
225.0224 342.882843017578
225.1700 44.6330375671387
225.7414 68.0705337524414
225.8700 46.6844863891602
225.9910 140.773300170898
226.1100 39.4868240356445
226.3400 15.6399660110474
226.5438 21.1400375366211
226.8463 36.0451965332031
226.9578 62.5947418212891
227.0500 156.749496459961
227.1500 75.234001159668
227.5700 30.570556640625
227.8493 185.801345825195
227.9771 49.8123779296875
228.1300 305.019866943359
228.2700 118.871971130371
228.5700 13.6639995574951
228.8808 34.8546142578125
229.0052 756.354614257813
229.1412 169.02653503418
230.0588 3880.14526367188
230.1100 1862.78540039063
231.0987 5125.25634765625
232.1100 417478.625
233.0926 68212.546875
234.0843 6527.5771484375
234.9226 220.6669921875
235.0217 448.453918457031
235.9390 76.1194458007813
236.0963 13.3382387161255
236.9700 1876.60107421875
238.0064 727.492065429688
238.8101 71.0043640136719
239.0100 275.060607910156
239.9600 130.583831787109
240.0885 122.341003417969
241.0506 1707.13024902344
241.7900 13.5179109573364
241.9025 88.9029846191406
242.0012 135.698623657227
242.1100 142.308624267578
242.6500 5.10030174255371
242.9200 59.3929252624512
243.0224 165.092971801758
243.1400 23.1787548065186
243.8400 54.6216201782227
244.0800 294.990753173828
244.8174 5.83691024780273
244.9955 120.936149597168
245.1800 52.912181854248
245.7677 24.5586032867432
245.9700 138.821594238281
246.1100 118.79109954834
246.2200 14.2122058868408
246.7600 51.068431854248
247.0911 241.569641113281
247.2300 81.9400024414063
247.3900 11.6304845809937
248.0400 386.193969726563
248.1300 2290.41357421875
248.8100 14.1728048324585
248.9683 81.0048828125
249.0793 584.554992675781
249.7500 9.60789680480957
250.0100 21.1051425933838
250.1300 45.8600959777832
250.3100 8.09334659576416
250.7500 19.6914253234863
250.9923 85.0452651977539
251.1800 11.136402130127
252.1500 24.1190185546875
252.9354 4.155517578125
253.0256 143.957885742188
253.9400 137.353057861328
254.1100 22.0251312255859
254.7674 19.7055683135986
254.9201 37.9786033630371
255.0600 49.6307907104492
255.1700 31.493932723999
255.9700 39.1441307067871
256.1000 14.3910694122314
256.9517 239.492385864258
257.1200 20.089241027832
257.8112 67.9120025634766
258.0050 131.444198608398
258.1600 48.8379592895508
258.9749 196.749389648438
259.1096 1237.06567382813
260.1200 5207.72509765625
261.0105 397.041229248047
261.1000 747.666137695313
261.1800 132.296478271484
261.7300 22.4284915924072
262.0300 145.748672485352
262.1100 50.1528244018555
262.2700 17.6194267272949
262.8941 35.61962890625
263.0300 31.9957733154297
263.1600 23.6619567871094
263.8300 35.3816719055176
264.0900 19.8793697357178
264.8951 68.4989013671875
264.9900 18.7921295166016
265.1061 18.6478652954102
265.7900 34.698902130127
265.9100 18.3326988220215
266.0500 126.026718139648
266.8821 62.4535026550293
266.9916 78.3653869628906
267.0700 144.163055419922
267.1900 24.4264030456543
267.3300 14.0358448028564
267.8900 35.3553161621094
268.0700 450.146911621094
268.7000 12.6831960678101
269.0334 298.027435302734
269.8071 8.95224761962891
269.9435 26.3032627105713
270.0800 140.232086181641
270.6948 38.6149673461914
270.8491 50.54345703125
270.9710 59.0348434448242
271.1800 13.2757005691528
271.9500 59.9041748046875
272.0912 47.8564949035645
272.9093 210.501037597656
273.0117 33.0580596923828
274.0200 71.2648468017578
274.1224 15.9886455535889
274.8584 81.1376037597656
274.9669 208.654830932617
275.6273 11.837703704834
275.8047 25.2137432098389
275.9646 1.97603130340576
276.7331 74.313720703125
276.8644 50.1809387207031
277.8821 17.3221321105957
278.0215 69.3262710571289
278.6579 50.3776359558105
278.7675 50.8301734924316
278.8759 31.0869369506836
279.0385 4.79755210876465
279.9400 21.1819801330566
280.1000 24.4365577697754
280.7853 4.13819885253906
280.9153 16.9554443359375
281.0043 87.6909942626953
281.8449 8.06384658813477
282.0117 67.896369934082
282.7791 9.93079566955566
282.9253 70.9016189575195
283.1200 30.5604801177979
283.7200 9.3443546295166
283.9300 32.7177352905273
284.0900 24.7953090667725
284.2200 21.0262966156006
284.3500 8.36715030670166
285.0580 744.9326171875
285.1800 222.34228515625
286.1077 3481.38110351563
287.1192 6626.8349609375
288.1100 19957.029296875
289.0900 4528.87939453125
289.9482 182.811111450195
290.0616 371.276428222656
290.7700 8.13582897186279
290.9100 5.09890747070313
291.0025 75.5878448486328
291.1100 53.625732421875
291.8227 27.5671005249023
291.9767 84.0566482543945
292.1100 7.9515175819397
292.9502 797.650390625
293.8431 41.3040618896484
293.9669 217.934875488281
294.6900 17.6829280853271
294.9574 167.156509399414
295.9100 72.9464797973633
296.0499 33.7120361328125
296.8600 179.052719116211
296.9442 31.2443771362305
297.1100 25.0599174499512
297.7200 38.6653480529785
297.9300 93.0207901000977
298.0257 55.7001724243164
298.6571 12.1126642227173
298.7759 18.5738677978516
298.9038 47.8975944519043
299.0607 115.559074401855
299.9510 83.7540740966797
300.0600 37.8411445617676
300.1700 102.278938293457
300.9182 98.4032821655273
301.0812 133.015380859375
301.3000 7.5518593788147
301.8900 8.26909446716309
302.0300 38.7400741577148
302.8518 52.8976516723633
302.9579 95.8349227905273
303.1102 146.607040405273
303.2100 251.073333740234
303.8500 26.7002372741699
303.9497 89.3205184936523
304.1100 227.237884521484
304.2000 246.476150512695
304.9344 50.0955657958984
305.1296 2764.6103515625
305.7700 11.1934013366699
305.9600 158.979934692383
306.1000 399.2001953125
306.2000 107.675514221191
306.7015 3.50768947601318
307.0253 146.129013061523
307.1400 33.7436447143555
307.8700 47.379093170166
309.0939 14.3031063079834
310.1300 38.5363845825195
310.9225 50.0351715087891
311.0761 75.4990921020508
311.8600 41.9733619689941
312.1000 75.8347396850586
312.2700 19.947811126709
312.9100 8.61907482147217
313.0400 16.5620536804199
313.8500 7.73668003082275
313.9600 11.9996557235718
314.7100 9.66067504882813
314.9100 33.9594955444336
315.0766 184.817306518555
315.8900 33.8952217102051
316.0000 27.5103397369385
316.1400 144.834991455078
317.1800 12765.255859375
318.1900 3331.89916992188
319.0900 383.708953857422
319.1800 132.166687011719
320.2400 8.72536277770996
321.1300 7.86276149749756
322.0400 11.0259428024292
322.9900 32.6464233398438
323.1700 11.4242992401123
323.3200 8.94327068328857
323.9200 7.84835720062256
324.1000 9.46293449401855
324.2100 30.8640956878662
324.9400 21.7921943664551
326.0400 98.3874130249023
326.2300 9.88223552703857
326.9100 20.0316600799561
327.0500 131.103958129883
327.3200 9.75693511962891
327.9700 203.733703613281
328.1200 266.699890136719
328.9800 87.6954193115234
329.1300 1571.10571289063
329.1900 518.485656738281
329.8600 9.62551498413086
330.0800 153.330703735352
330.1800 246.515991210938
330.2800 26.2271919250488
330.9225 59.7968597412109
331.0819 8.50087738037109
331.1900 15.3050765991211
331.9400 38.4046249389648
332.3300 7.97868824005127
332.8757 28.1797981262207
334.7600 9.30736541748047
334.8815 5.19643115997314
335.0000 16.1307163238525
336.8600 10.6818761825562
339.1300 10.8869228363037
340.9403 7.11127471923828
341.0900 63.6843872070313
341.2300 22.2105007171631
341.3500 12.2049388885498
341.9600 12.0985345840454
342.0800 50.8153266906738
342.9900 17.2679748535156
343.1500 1073.54736328125
343.2400 395.978393554688
344.1200 630.351440429688
344.1900 1040.99731445313
344.8348 0.185149192810059
344.9900 79.9359664916992
345.0900 302.881042480469
345.2000 64.3470993041992
345.3200 11.9925518035889
345.8600 18.2597122192383
346.0313 102.662994384766
346.1800 326.939788818359
346.3800 37.9149131774902
346.8426 7.96346759796143
346.9900 39.2097854614258
347.0800 66.5762710571289
348.5927 1.69278049468994
348.9000 121.454177856445
348.9952 0.550813674926758
349.1500 14.3842105865479
349.8450 7.82194232940674
350.8156 4.99860858917236
352.7919 24.3011054992676
352.9220 19.3783798217773
353.0800 26.7529029846191
354.9100 38.6111755371094
355.0600 11.3149728775024
355.1700 7.66744995117188
359.1500 20.6701564788818
360.1500 33.6941871643066
361.1100 95.528076171875
361.2200 12868.1201171875
362.2000 1330.20629882813
362.2500 1606.26293945313
362.9600 53.2188339233398
363.0700 122.104598999023
363.1700 191.68994140625
363.3100 64.7014541625977
364.2700 11.108491897583
365.0100 10.2431907653809
367.0400 67.3116455078125
367.2900 10.3489255905151
367.7400 8.00747966766357
367.8900 8.8908519744873
368.8800 9.22793769836426
370.8800 24.3512878417969
371.0066 18.1160831451416
385.0000 9.29708385467529
388.8500 7.9000678062439
401.0600 47.1696472167969
401.8600 8.34314346313477
