#"+EI Scan (rt: 8.944-9.061 min, 21 scans) R10M1.D  Subtract "
#Point,X(Thompsons),Y(Counts)
40.1002 54.642505645752
41.0509 3007.009765625
41.9386 57.9740753173828
42.0729 138.845443725586
42.2600 8.00068092346191
42.9315 9.62862396240234
43.0400 1435.58044433594
44.0101 418.735168457031
44.8555 29.549560546875
45.1527 35.0194778442383
45.8300 24.7106533050537
45.9835 5.76444482803345
47.0319 967.87353515625
47.9900 7.96323013305664
49.8222 21.9638786315918
49.9157 68.8771286010742
50.0388 38.7764358520508
50.1564 11.8968305587769
51.0280 509.901275634766
51.9000 69.2104339599609
52.0176 37.7351608276367
52.1535 8.18187427520752
52.9387 61.6063766479492
53.0686 224.498611450195
53.8610 24.885009765625
54.0050 9.70455169677734
54.9315 153.693252563477
55.0289 212.409973144531
56.1234 37.9487228393555
56.7687 24.4033813476563
56.9311 23.6333541870117
57.8203 8.13757133483887
58.2452 26.2336025238037
59.0300 868.36669921875
59.9415 16.5587539672852
60.0503 37.6558380126953
60.2600 8.18529510498047
60.7575 10.7251195907593
60.9088 83.2087631225586
61.0402 256.412445068359
61.2457 13.5150861740112
61.8129 35.0937271118164
61.9507 32.6106185913086
62.0377 91.1119537353516
62.8007 4.26255226135254
62.9249 139.306213378906
63.0265 290.535003662109
63.8500 19.0284538269043
63.9630 127.027786254883
64.8876 10.28005027771
64.9816 259.076080322266
65.9153 11.334361076355
66.0738 8.26978302001953
66.7938 2.57150650024414
66.9715 131.530502319336
67.0945 67.7732086181641
67.9370 9.05614376068115
68.1381 32.509952545166
68.9768 55.5520782470703
69.0622 780.886840820313
69.7689 33.7490272521973
69.8900 10.1996593475342
70.0590 61.8594436645508
70.8431 6.99197053909302
71.1587 13.5132789611816
71.9000 18.7175636291504
72.1684 5.49566793441772
73.1000 507.980499267578
73.8028 7.62320137023926
74.0603 194.385894775391
74.9494 477.159301757813
75.8251 1.59856224060059
75.9758 219.245391845703
76.1064 218.893280029297
77.0200 1155.697265625
78.0253 617.03466796875
79.0527 225.560989379883
79.7792 6.37319850921631
80.1456 18.3299331665039
80.9844 97.373291015625
81.6500 8.78796005249023
82.0825 21.1568584442139
82.9185 26.0882186889648
83.0323 61.7931327819824
83.1750 13.6642551422119
84.0000 10.0830907821655
84.1600 8.88936328887939
84.9659 139.331817626953
85.0915 17.3882999420166
85.9200 18.2382659912109
86.0400 35.9856300354004
86.1941 5.54269218444824
86.7300 10.4488964080811
86.8720 63.731575012207
86.9891 115.559097290039
87.1200 56.7671775817871
87.3000 8.84946537017822
87.9200 127.209983825684
88.0403 320.821380615234
89.0092 1666.30822753906
89.9072 69.4541473388672
90.0100 188.758270263672
90.1000 42.7133026123047
90.9260 90.9477844238281
91.0250 313.3583984375
91.7803 7.5545129776001
92.0064 35.1254806518555
93.0267 30.4409351348877
93.1455 18.7867908477783
94.0666 6.8989200592041
94.3388 13.862964630127
94.7704 57.1250991821289
94.8800 18.2253608703613
95.1700 21.7584495544434
95.7861 57.2627944946289
96.0798 0.553699493408203
96.3208 2.98238468170166
96.6913 7.46550607681274
96.9046 47.6416549682617
97.8784 18.9518966674805
97.9958 77.5930099487305
98.1300 23.2181777954102
98.9726 66.7112350463867
99.8502 60.1617584228516
100.0417 46.2242965698242
100.8500 31.6311473846436
100.9597 355.970672607422
101.0598 413.395935058594
101.1861 22.219596862793
101.9500 308.443206787109
102.0500 1579.78210449219
102.8157 10.8086204528809
102.9645 685.970031738281
103.7811 12.8820667266846
103.9200 18.6898498535156
104.0770 52.8247184753418
104.8978 5.60558032989502
105.0643 22.4467639923096
105.9438 15.2994518280029
106.1589 46.1222724914551
106.3200 23.3065509796143
106.6036 47.3371849060059
106.7520 47.6565322875977
106.8929 35.3155403137207
107.0306 62.7305641174316
107.3500 35.7251777648926
107.7118 37.6892700195313
107.8711 26.686544418335
108.1288 19.8689861297607
108.9535 842.146911621094
109.8690 42.5877418518066
110.0341 56.9198875427246
111.0787 81.1414566040039
111.7700 16.1495380401611
111.8896 34.2018737792969
112.0593 28.1892795562744
112.2900 8.72944164276123
112.9063 262.657409667969
113.0447 422.7080078125
113.3500 25.4408054351807
113.7700 17.8513069152832
113.9201 309.535827636719
114.0700 549.79833984375
115.0185 4798.3408203125
115.0503 4319.89892578125
115.8300 47.8125419616699
115.9600 182.591857910156
116.0300 3465.39794921875
117.0245 1025.29943847656
117.6963 5.68191814422607
117.9089 31.0427856445313
118.0330 95.1928634643555
118.2646 8.6977596282959
118.5500 22.0283432006836
118.7188 44.1284370422363
118.8703 38.8510704040527
119.2400 152.531021118164
119.4000 86.3702774047852
119.5600 36.8756675720215
119.7005 59.4245529174805
119.8300 37.0505027770996
119.9578 31.4538192749023
120.1493 72.426887512207
120.4000 48.3862190246582
120.6100 301.365295410156
120.7229 66.9780197143555
120.8560 11.7614250183105
121.0822 101.756401062012
121.2600 40.5278739929199
121.6612 51.6337738037109
121.8700 9.39851570129395
122.0157 25.756103515625
122.8634 68.4016723632813
122.9953 3.48311614990234
123.8868 3.89976787567139
124.8528 6.17665481567383
125.0000 92.1958160400391
125.2200 13.1666259765625
125.7100 15.5253601074219
125.8726 56.1675453186035
125.9996 175.780029296875
126.0500 97.3316268920898
126.1900 104.152038574219
126.4300 13.3569316864014
126.8839 146.944458007813
127.0269 676.568298339844
127.1300 553.211303710938
127.5096 119.010200500488
127.8696 120.403305053711
128.0300 2145.52270507813
129.0398 1881.34326171875
129.9487 187.325988769531
130.0401 1043.49975585938
130.8300 0.898036956787109
130.9768 205.697067260742
131.0891 100.644828796387
131.6330 12.2690238952637
131.7686 11.7916650772095
131.8998 95.1301498413086
132.0400 107.152587890625
132.1766 17.16748046875
132.4300 24.0916023254395
132.6046 17.9764194488525
132.7361 19.8991851806641
133.0600 134.196228027344
133.2000 161.451126098633
133.3400 53.1688575744629
133.6094 219.114379882813
133.7621 163.651397705078
133.9443 88.4691925048828
134.0700 142.196868896484
134.1975 119.149291992188
134.4192 79.2756271362305
134.5600 436.681304931641
134.6900 417.732147216797
135.0915 70.9237518310547
135.5777 37.6300888061523
135.6840 35.5586395263672
136.0632 88.4444580078125
136.1668 58.9381370544434
137.0100 2507.4853515625
138.0000 440.409851074219
139.0157 4000.31884765625
139.8881 71.6708374023438
140.0500 1420.70678710938
140.1536 48.1999969482422
141.0500 7701.84521484375
141.7100 598.467407226563
141.8691 625.650024414063
142.0670 470.3671875
142.8240 12.1173038482666
142.9354 367.322540283203
143.0577 503.216186523438
144.0300 6469.98583984375
144.8045 7.53485488891602
144.9113 324.229583740234
145.0394 438.101135253906
145.9526 49.5323219299316
146.1657 22.1420364379883
146.7500 32.1061782836914
146.9410 31.0203132629395
147.1000 11.0267057418823
147.2503 35.0751953125
147.6200 60.1482734680176
147.7500 84.2278442382813
148.1900 20.9587440490723
148.4600 513.054748535156
148.5900 1030.00939941406
148.6697 175.870208740234
149.1391 117.930488586426
149.2800 60.4398727416992
149.5100 14.674560546875
149.7700 80.9244995117188
149.9000 44.3549919128418
150.0800 71.3534622192383
150.2500 8.31100177764893
150.8420 108.31600189209
151.1010 160.723876953125
151.9097 188.296524047852
152.0478 252.082550048828
152.9461 334.003662109375
153.0771 193.145477294922
153.7600 39.2357482910156
154.0097 308.388610839844
154.1100 189.362548828125
155.0476 890.101135253906
155.9515 315.124053955078
156.0618 240.664398193359
156.7922 8.75746917724609
157.0600 362.272705078125
157.1618 68.7295303344727
157.8719 118.727577209473
157.9902 88.5725250244141
158.1628 11.7716112136841
158.9300 1618.80688476563
159.9654 58.1622924804688
160.0560 39.7266998291016
160.8546 26.3043212890625
160.9773 68.2515716552734
161.6725 6.36479663848877
161.9184 60.2582244873047
162.8726 136.968475341797
162.9806 141.644104003906
163.8216 82.9319534301758
163.9573 62.7088470458984
164.0707 30.7509117126465
164.8532 152.888153076172
164.9927 168.596908569336
165.7314 9.91728019714355
165.8710 69.3098297119141
166.0226 82.9619522094727
166.8445 46.4974365234375
166.9809 263.762084960938
167.7777 7.90183162689209
167.8990 121.760147094727
168.0100 142.491622924805
168.1125 127.028984069824
169.0589 4786.01025390625
169.6708 6.62959337234497
169.8941 106.541015625
170.0000 574.396362304688
170.0800 490.572937011719
170.7288 12.7959251403809
170.8745 159.618865966797
171.0236 82.3921051025391
171.9524 23.9521236419678
172.5700 8.28732872009277
172.8560 22.604793548584
173.8800 17.3937149047852
174.0200 25.5086345672607
174.1400 8.06387138366699
174.7663 14.8652954101563
174.8800 12.8737840652466
175.0769 22.4983024597168
175.2300 8.49814987182617
175.5900 7.88811302185059
175.7900 33.556526184082
175.8800 47.6468086242676
176.0200 63.079704284668
176.1500 8.27050399780273
176.6300 31.7670841217041
176.8147 68.1415786743164
176.9511 37.8819999694824
178.0000 66.9281311035156
178.1086 18.7116966247559
178.7625 37.6510696411133
178.9140 62.9811515808105
179.1135 48.4120788574219
179.8326 8.39132022857666
180.0583 176.046569824219
180.2000 10.2940492630005
181.0389 3525.65478515625
181.9145 146.745483398438
182.0404 494.176849365234
182.5593 8.92187404632568
182.8089 13.7715816497803
182.9470 139.005615234375
183.0760 22.530818939209
183.6726 6.72197151184082
183.8970 146.228454589844
183.9824 51.0011405944824
184.1400 43.173282623291
184.2606 13.0425729751587
184.5800 13.8917694091797
184.8656 53.5691680908203
184.9765 107.689819335938
185.8079 22.7166557312012
185.9800 25.193172454834
186.0800 12.8591337203979
186.1800 22.4171104431152
186.4100 23.2116298675537
186.5300 11.5763120651245
186.6785 6.48779106140137
186.8200 102.706993103027
186.9440 156.345520019531
187.0765 11.690710067749
187.8100 8.62275123596191
187.9603 121.443473815918
188.2100 21.5553417205811
188.6561 22.3731117248535
188.8852 81.3773880004883
188.9828 114.350120544434
189.1006 50.6205940246582
189.7000 10.6149377822876
190.0010 53.3971710205078
190.9937 121.991958618164
191.0600 26.9075050354004
191.9232 30.780403137207
192.0522 34.3316192626953
192.7336 35.4352073669434
192.9174 10.7555694580078
193.7491 8.58526420593262
193.9002 60.7788543701172
193.9910 17.1546669006348
194.1900 13.2120056152344
194.9822 308.851989746094
195.8429 17.0796546936035
195.9853 95.1198425292969
196.2400 8.26257133483887
196.9177 181.511795043945
197.7029 15.3433504104614
197.8454 100.125221252441
197.9632 20.9674472808838
198.6746 3.4975757598877
198.8323 93.6161041259766
198.9478 33.9093627929688
199.0959 0.829976081848145
199.9040 73.6147613525391
200.0102 262.409240722656
200.9342 366.574920654297
201.0400 107.160537719727
201.9692 225.39372253418
202.0889 143.105682373047
202.2600 16.3296318054199
202.6597 0.684540510177612
202.8976 59.6002426147461
203.0324 97.9205551147461
203.8665 81.6313629150391
204.0279 106.743309020996
204.1500 47.6612777709961
204.8780 47.3291931152344
205.0314 62.7588691711426
205.8576 5.37259006500244
206.0007 5.68672275543213
206.9532 757.754028320313
207.7026 3.13702821731567
207.8466 78.7117156982422
208.0041 21.2058563232422
208.6906 2.98486256599426
208.8422 17.4696140289307
209.0804 8.60146427154541
209.7200 7.21985578536987
209.8669 27.6089973449707
210.0469 33.0720252990723
210.8800 114.261268615723
210.9913 288.812805175781
212.0419 467.316070556641
212.9759 417.959655761719
213.0800 258.845062255859
213.8571 13.1135883331299
214.0179 495.856994628906
214.9909 1355.30810546875
215.9419 375.950378417969
217.0127 534.483642578125
217.6400 9.13570213317871
217.8430 71.5825424194336
218.9201 365.361968994141
219.7372 59.6947975158691
220.0400 22.8180885314941
220.1700 7.34337520599365
220.5976 27.2207298278809
220.9757 162.065780639648
221.6487 9.16869068145752
221.9356 12.2550859451294
222.6435 25.2589149475098
222.8412 18.7462615966797
222.9600 125.774253845215
223.2100 8.01166534423828
223.7548 7.48517513275146
223.8745 38.0051689147949
223.9900 53.2760314941406
224.0800 193.202621459961
225.0219 360.836761474609
225.7600 22.7301368713379
225.8700 64.0582656860352
226.0600 1040.58471679688
227.0252 681.511413574219
227.1700 7.90635442733765
227.9000 78.7013778686523
228.0403 286.790649414063
228.1300 327.110412597656
228.9343 80.8275527954102
229.0623 289.149810791016
229.7800 2.37394237518311
229.9147 86.2805328369141
230.0579 191.922698974609
230.2093 19.4975547790527
230.3200 13.1335639953613
230.6900 37.4361038208008
230.7598 13.5877990722656
230.9408 46.5423316955566
231.0670 135.28254699707
232.0900 8883.1044921875
233.0118 1865.81396484375
233.9400 142.004455566406
234.0412 90.7558898925781
234.8561 99.739372253418
234.9911 6.91835784912109
235.1369 59.8421096801758
235.8728 19.7242069244385
236.0256 16.036205291748
237.0033 1211.44519042969
238.0048 449.241149902344
239.0060 700.612548828125
239.1528 26.6662158966064
239.8718 21.5582580566406
240.0501 606.675659179688
240.1100 548.037902832031
241.0699 3090.50952148438
241.7549 8.67325401306152
242.0000 561.158325195313
242.0993 326.182586669922
242.7806 25.7121295928955
242.8882 72.5016250610352
242.9962 120.165985107422
243.1072 53.6159973144531
243.7000 9.59345722198486
244.3000 8.4986400604248
244.9810 3.95362663269043
246.9400 5.04198551177979
247.8143 3.97212839126587
248.8500 25.8232688903809
248.9557 12.0191783905029
249.1121 17.7278594970703
249.6000 8.51059627532959
249.8400 38.455810546875
250.1300 15.4220056533813
250.7890 56.0822906494141
250.8845 40.5183143615723
251.0300 130.044311523438
251.1105 91.955924987793
251.9200 86.4418792724609
252.0900 366.190155029297
252.9749 257.619506835938
253.0800 629.697143554688
253.9404 31.9954261779785
254.0700 3232.17114257813
254.1816 25.478343963623
254.9119 10.4057903289795
255.0800 1722.68859863281
255.8500 35.3995056152344
256.0500 759.110473632813
256.8364 35.7992553710938
257.0018 130.35270690918
257.1403 109.528923034668
257.8540 10.5680322647095
257.9700 24.9162483215332
258.1400 10.9639225006104
258.9772 15.4209680557251
259.0600 30.9567108154297
260.8989 15.0195388793945
261.0900 11.2878465652466
263.8300 9.28240489959717
263.9500 64.1298980712891
264.0800 52.4380683898926
264.7700 16.0861358642578
264.9100 97.1272811889648
265.0600 191.658325195313
265.8900 117.220611572266
266.0100 223.536407470703
266.1200 152.83935546875
266.2500 31.4511547088623
267.0003 475.633148193359
267.1200 321.510406494141
268.0499 878.331665039063
268.1300 974.891784667969
268.9800 463.894409179688
269.0802 1654.00744628906
270.0500 1278.75561523438
270.1100 530.277221679688
270.2800 11.0646991729736
270.7805 65.5217208862305
271.0508 473.647277832031
271.7386 9.96083831787109
271.8666 43.7766494750977
271.9695 4.96924781799316
272.1433 8.23533535003662
272.5654 9.99598217010498
272.7651 2.34075546264648
272.8855 37.8252563476563
272.9739 55.3913040161133
273.8625 15.0160312652588
274.6509 3.06229448318481
274.8942 7.31741333007813
275.0121 122.351440429688
275.6800 7.18750858306885
275.8342 41.1128845214844
275.9380 3.59052181243896
276.7066 25.8738651275635
276.9735 85.3964080810547
277.0819 7.05922889709473
277.2200 14.0857820510864
277.9804 116.045120239258
278.1500 33.7289237976074
278.7156 54.3611030578613
279.0032 124.521507263184
279.1200 41.7210159301758
279.7907 11.0774812698364
279.9303 164.24137878418
280.1200 368.270111083984
280.9966 148.30940246582
281.0904 603.495544433594
281.2200 51.4225730895996
281.8187 39.2398490905762
281.9991 363.662048339844
282.1000 644.999877929688
282.2800 12.791543006897
282.9041 5.02133560180664
283.0301 1038.57556152344
283.1200 548.856567382813
284.0600 2841.732421875
284.1100 1937.42785644531
284.9571 71.8770446777344
285.0755 1095.14514160156
285.2041 17.9132766723633
285.9688 242.603729248047
286.0897 61.5936050415039
286.2327 5.72208261489868
287.0716 124.337608337402
287.9105 13.4028739929199
288.8409 108.576599121094
288.9665 126.427886962891
289.7852 3.60142135620117
289.9048 9.94097900390625
290.0339 27.8605079650879
290.6347 6.02471780776978
290.7520 26.4999732971191
291.0039 13.1360549926758
291.2600 10.4407739639282
291.7720 8.73337745666504
291.9473 35.945915222168
292.1983 7.67745685577393
292.7740 35.7805328369141
293.0105 220.189331054688
293.9979 226.182891845703
294.1592 80.144645690918
294.6600 38.7261734008789
294.9107 164.070693969727
295.0271 70.6163177490234
295.8783 73.8738327026367
296.0595 506.461547851563
296.1798 97.2166519165039
297.0117 493.705688476563
297.0900 108.192222595215
298.0999 7629.919921875
298.8968 27.546012878418
299.0800 1888.1494140625
299.2000 41.1633377075195
299.9800 95.0476303100586
300.1100 125.781753540039
300.5262 9.75561141967773
300.7812 3.71150302886963
300.8800 29.0260448455811
301.0159 28.9414806365967
301.1623 6.2434663772583
302.6800 17.5396881103516
302.8996 8.86006355285645
303.0984 25.7671718597412
305.0803 7.38843250274658
305.9100 11.9541425704956
306.1500 9.12082672119141
306.9000 19.6020679473877
307.0364 43.9190139770508
307.1907 19.2597751617432
307.9206 11.5820436477661
308.0881 31.7244205474854
308.2200 32.4587249755859
308.9734 14.3273801803589
309.8800 35.9547119140625
310.0400 74.671012878418
310.1200 86.1496124267578
310.8741 11.9010105133057
310.9808 55.7259216308594
311.1216 16.5930728912354
311.9900 87.6162719726563
312.1000 106.532669067383
312.3200 33.1369094848633
312.9905 14.9369068145752
313.1700 7.7016134262085
314.8478 8.04426956176758
315.1500 19.3428764343262
323.9200 20.3538570404053
324.0300 9.17968940734863
324.1400 17.1121120452881
324.9500 25.1368751525879
325.1300 8.82000064849854
325.2600 10.1764831542969
328.8795 35.5521659851074
329.1090 20.0053615570068
329.2500 8.11022090911865
329.6600 9.35658740997314
329.8700 18.6720790863037
330.1200 8.43868446350098
330.6700 7.24230718612671
330.9252 6.31229019165039
331.0587 7.59757280349731
332.9700 7.84827518463135
335.9500 55.650505065918
336.0300 16.9102020263672
336.1900 23.2181205749512
337.0800 30.3338584899902
337.2800 7.82383346557617
338.1200 31.9381446838379
339.9100 66.0414657592773
340.0500 195.686737060547
340.1800 126.824729919434
340.7700 9.22338581085205
340.9700 12.9535779953003
341.1400 68.4505004882813
343.0000 9.30300426483154
344.0900 140.20915222168
344.2000 189.919097900391
344.9600 23.4367408752441
345.0600 82.2883148193359
345.1700 210.856079101563
346.0500 15.9540729522705
346.1800 42.3876724243164
346.3200 9.62275505065918
348.6598 8.66447448730469
348.8323 26.7419414520264
349.7500 7.40307188034058
350.9674 3.90621185302734
352.1400 26.1345825195313
352.2600 12.161509513855
352.8597 50.352970123291
352.9973 50.9149360656738
353.1600 122.757766723633
353.8200 13.4382524490356
354.0400 122.012100219727
354.1900 312.996673583984
354.3200 44.9930763244629
354.9223 20.1465396881104
355.0900 117.991546630859
355.2400 20.9933891296387
356.1600 8098.28857421875
357.0700 692.974914550781
357.1800 1560.35302734375
357.9900 14.5991497039795
358.1400 2735.07885742188
358.8400 9.92878246307373
359.0200 260.917175292969
359.1700 516.192504882813
360.1000 94.1710815429688
361.0700 10.0343103408813
370.8684 7.44117450714111
370.9700 21.271053314209
371.1100 32.9317245483398
371.2400 22.6978435516357
372.0700 641.340942382813
372.1700 6124.13525390625
373.1800 14159.9267578125
373.9900 29.7901172637939
374.1800 3501.37622070313
374.9693 40.3086242675781
375.1400 411.137268066406
375.2800 52.5718307495117
376.0200 8.55856895446777
376.2300 8.41169357299805
376.3600 7.28419923782349
