#"+EI Scan (rt: 4.998-5.115 min, 21 scans) JWH-018-1.D  Subtract "
#Point,X(Thompsons),Y(Counts)
40.0700 32.9337501525879
40.1800 3000.12451171875
41.0800 68782.015625
42.1400 7941.34912109375
43.0900 135996.09375
43.9406 24.5375003814697
44.0798 4538.7900390625
45.0500 55.2802543640137
46.8827 44.4587173461914
49.1000 60.7775192260742
49.2400 12.8003015518188
50.0500 3948.63623046875
51.0391 11402.48046875
52.0400 3661.79345703125
53.0596 5531.1796875
53.9800 109.385055541992
54.1400 1130.4052734375
55.0698 21201.875
56.0699 1429.04516601563
57.0231 466.789794921875
57.1700 125.288612365723
57.8659 32.8869743347168
57.9900 45.0891876220703
58.1527 7.88923931121826
59.0209 483.348388671875
59.8714 28.9032936096191
59.9886 24.593111038208
60.1400 18.8903160095215
60.9297 175.933547973633
61.0900 351.553527832031
62.0200 5431.26171875
63.0299 14030.5908203125
63.9900 1506.02526855469
64.0500 1252.83337402344
65.0200 3938.3759765625
65.8500 9.0969820022583
66.0000 516.170288085938
66.0700 150.252410888672
66.8995 139.375900268555
67.0395 1006.04223632813
67.1500 95.0541229248047
67.8800 41.5773391723633
68.0600 141.764312744141
68.1800 83.5923461914063
69.0383 2756.62158203125
69.7600 10.4136562347412
69.8900 40.4461135864258
70.0300 161.329605102539
70.1600 185.867324829102
70.2900 44.9098892211914
71.0800 3604.5029296875
71.9000 34.2200546264648
71.9900 100.545516967773
72.0994 134.845260620117
73.0063 608.349243164063
73.0780 112.193298339844
74.0400 9335.669921875
75.0297 31085.77734375
76.0400 25285.89453125
77.0391 70920.2734375
78.0457 11819.240234375
78.9828 695.447448730469
79.0609 966.580322265625
79.9000 74.3713607788086
80.0000 135.062576293945
80.1400 20.2376499176025
80.9615 334.494567871094
81.3700 83.2446899414063
81.6900 38.5738296508789
81.8537 36.5421142578125
81.9931 81.3879165649414
82.6400 7.64751386642456
82.7800 27.7309055328369
82.8870 60.2059478759766
83.0177 55.8478813171387
83.1500 28.0283966064453
83.3800 27.1766185760498
83.9400 74.7068405151367
84.0700 57.6687469482422
84.8294 67.7048110961914
84.9696 272.131378173828
85.0900 99.3108749389648
85.1900 7.96879005432129
86.0300 3221.71728515625
86.1600 87.7923583984375
87.0300 9492.4345703125
88.0300 16784.30078125
89.0299 55154.55078125
90.0200 8412.6044921875
90.9998 1449.36145019531
91.0700 1055.38220214844
91.9000 83.7741851806641
92.0600 258.167236328125
92.9051 16.4447860717773
93.0700 138.275619506836
93.3300 253.993347167969
93.4100 421.791564941406
93.5300 243.504791259766
93.6600 242.723114013672
93.7800 197.690704345703
93.9500 112.444984436035
94.1900 32.6781768798828
94.3400 138.893081665039
94.4600 1759.10827636719
94.5400 794.905517578125
94.8900 50.8564376831055
95.2100 118.310852050781
95.4000 41.666862487793
95.5400 57.4138832092285
95.7600 61.9768257141113
95.9300 41.5388259887695
96.1000 11.4485216140747
96.8756 59.2530136108398
97.0375 128.009399414063
97.2100 15.1996879577637
97.9800 1419.9560546875
98.0300 1708.17004394531
99.0200 5274.95654296875
100.0500 8718.3955078125
101.0400 75400.5625
102.0400 85161.6484375
103.0400 26174.107421875
104.0300 3885.19067382813
104.1600 41.8038063049316
104.8000 41.9962577819824
104.9217 97.8372192382813
105.0300 204.684921264648
105.2000 233.62532043457
105.3500 200.641326904297
105.7900 38.1636047363281
105.9000 153.328170776367
106.4300 1157.65881347656
106.5300 3286.73071289063
106.8308 342.978302001953
107.0600 117.654853820801
107.2900 720.770263671875
107.4600 778.641967773438
107.6300 165.397811889648
108.2300 113.457580566406
108.3900 350.647430419922
108.5900 149.738861083984
108.7994 299.022796630859
108.9284 395.675170898438
109.9200 340.686553955078
110.0495 462.085571289063
110.7800 35.9504699707031
110.9797 1370.4091796875
111.0975 84.8513031005859
111.9800 594.157531738281
112.0900 1708.8544921875
112.2000 1043.90441894531
113.0400 16967.515625
114.0400 26839.396484375
115.0400 76838.625
116.0300 120401.234375
117.0399 24326.802734375
117.9000 46.5697402954102
118.0300 2138.01220703125
118.0800 1667.01062011719
118.2400 42.599292755127
118.7100 24.1246643066406
118.9100 111.482780456543
119.0899 1407.80810546875
119.2300 657.600463867188
119.4500 308.665496826172
119.5800 592.104614257813
119.7200 544.940307617188
119.8300 94.6915969848633
120.5400 11564.466796875
121.0604 247.874206542969
121.2200 217.937576293945
121.5700 96.4013442993164
121.6900 212.804336547852
121.9300 306.458404541016
122.9348 523.328918457031
123.0582 279.39404296875
123.8300 25.8353996276855
123.9700 376.191284179688
124.0600 270.730743408203
124.1500 95.5659332275391
125.0700 10404.5673828125
125.1500 151.545928955078
126.0600 128823.96875
127.0500 666759.5625
128.0400 177362.375
129.0400 81909.1171875
130.0500 59166.7421875
131.0399 8827.318359375
132.0700 4718.86962890625
132.2000 48.9533462524414
132.7297 118.105522155762
132.8276 171.514144897461
133.0141 4.75847339630127
133.2000 342.403472900391
133.3400 580.014526367188
133.5000 1475.60095214844
133.6100 238.79020690918
133.7300 439.065002441406
133.9700 197.269607543945
134.0806 177.032592773438
134.3200 824.5859375
134.6897 19.7861747741699
134.8787 485.312683105469
135.0100 1120.68664550781
135.1901 748.710510253906
135.3400 244.678405761719
135.4700 770.39697265625
135.5800 513.556945800781
135.8440 34.787281036377
135.9941 33.9510879516602
136.0766 172.874908447266
137.0064 4810.19873046875
138.0264 2340.02514648438
139.0499 21205.45703125
140.0600 8220.869140625
141.0790 230.760269165039
141.2100 1170.50720214844
141.3200 2718.35815429688
141.4800 23193.482421875
141.5900 1260.59167480469
141.7100 617.860473632813
141.8300 783.338928222656
142.0600 1515.03051757813
143.0399 30211.162109375
144.0300 317667.625
145.0400 33700.5703125
145.9800 1031.63720703125
146.0500 1613.40258789063
146.8700 74.903190612793
146.9893 243.954544067383
147.1000 143.987289428711
147.6000 122.705581665039
147.7600 190.70947265625
147.8700 15.1528797149658
148.0900 102.382682800293
148.2000 120.879280090332
148.3300 113.489074707031
148.5500 60.9651107788086
148.8505 162.198394775391
148.9900 1014.51477050781
149.0503 662.729187011719
150.0500 7033.6875
151.0491 8210.234375
152.0500 9963.044921875
153.0497 5056.72705078125
154.0800 15491.796875
155.0398 275050.34375
156.0500 46273.19140625
157.0488 9826.115234375
158.0500 9109.3056640625
158.9833 2167.17846679688
160.0091 781.626770019531
160.1400 83.4335174560547
161.0186 2227.24047851563
161.2000 42.7334480285645
162.0400 2842.74682617188
162.0999 1227.29296875
163.0597 11092.2314453125
163.9895 309.207305908203
164.0700 4922.6337890625
165.0501 4981.732421875
166.0799 2657.8271484375
167.0299 129472.7890625
168.0400 21485.74609375
168.9362 33.2358245849609
169.0400 3383.81323242188
170.0800 19281.59765625
170.6600 177.633316040039
170.8504 2241.56567382813
171.0401 1804.92395019531
171.8465 15.1568078994751
172.0499 1547.05322265625
172.9600 264.923156738281
173.0800 666.209167480469
174.0700 5630.642578125
175.0500 3965.10009765625
176.0600 6759.822265625
176.9200 42.3667411804199
177.0300 2609.80834960938
177.9900 725.435852050781
178.0800 1337.77172851563
178.9686 278.824645996094
179.0500 754.455200195313
179.1900 34.6803131103516
179.8900 77.8455352783203
180.0500 1212.14990234375
181.0298 2516.98486328125
181.9700 281.370697021484
182.0300 1189.3779296875
183.0089 778.904968261719
183.1200 367.683929443359
184.0700 6799.8056640625
185.0590 3498.69775390625
186.1100 33176.32421875
187.0698 24414.7734375
188.0800 12367.9794921875
189.0700 20580.017578125
190.0500 5795.5712890625
191.0275 1440.00378417969
191.9200 317.981597900391
192.0501 292.83349609375
192.9373 233.621154785156
193.0500 548.589477539063
193.9511 81.6837768554688
194.0502 393.681365966797
194.9058 258.403533935547
195.0061 96.2418365478516
195.7500 9.01472187042236
195.9800 381.9267578125
196.0902 149.022918701172
196.9604 172.206100463867
197.0510 388.831787109375
197.9540 157.418212890625
198.0600 2791.1650390625
199.0487 3516.24755859375
200.0700 11440.775390625
201.0700 7522.3896484375
202.0700 10750.1455078125
202.9726 123.517379760742
203.0700 3162.05322265625
203.9898 311.348358154297
204.0900 851.753234863281
204.8720 51.4611892700195
204.9421 175.735885620117
205.0604 572.5615234375
205.8700 35.761116027832
206.0300 331.854309082031
206.8306 16.504695892334
206.9813 159.929000854492
207.0966 158.719573974609
207.9000 125.098892211914
208.0376 159.531158447266
208.9304 229.483352661133
209.0405 230.075225830078
209.1800 26.4161167144775
210.0000 404.461853027344
210.0900 762.424438476563
211.0538 13240.4599609375
212.0888 15670.7890625
213.1000 92798.2109375
214.1200 662005.125
215.1200 177050.328125
216.1096 24838.962890625
217.0112 704.834289550781
217.0902 3294.91381835938
217.9035 31.8484668731689
218.0298 689.963073730469
218.1100 257.028747558594
218.9644 1018.31506347656
219.8261 16.3273849487305
219.9479 228.693664550781
220.0728 57.1705055236816
220.8100 150.470321655273
220.9269 36.3451919555664
221.0828 110.7861328125
221.9797 430.285522460938
222.0800 375.673553466797
222.2000 34.2871551513672
222.9526 183.862655639648
223.0700 1564.85180664063
224.0900 12580.8173828125
225.1000 13314.9599609375
226.1000 43173.4296875
227.0899 23751.173828125
228.1000 23014.953125
229.1101 9735.939453125
230.0900 3432.8125
230.9773 274.410888671875
231.0800 621.166076660156
232.0000 59.4639587402344
232.1500 85.8650741577148
233.0000 1334.07446289063
233.9899 452.044860839844
234.9980 582.319091796875
235.9342 65.9022521972656
236.0500 868.874267578125
236.1200 239.571868896484
237.0093 4214.224609375
238.0897 18162.8828125
239.0899 25215.369140625
240.1100 96832.5
241.1100 235674.703125
242.1200 112747.2578125
243.1100 28080.908203125
244.1000 5821.267578125
244.8684 17.9709377288818
245.0300 601.479553222656
245.1400 331.226379394531
245.3000 22.17360496521
245.9000 8.42453193664551
246.0700 135.626571655273
246.1800 24.9409084320068
246.9500 54.6220779418945
247.1100 26.7383918762207
248.0300 102.960784912109
248.1500 36.7414894104004
248.9800 218.102233886719
249.1000 908.015625
249.9900 154.337448120117
250.1000 1347.68774414063
251.1000 14387.2314453125
252.1100 15339.8916015625
253.1100 30055.09765625
254.1100 160327.59375
255.1200 75608.5078125
256.1200 85665.3359375
257.1200 20196.443359375
258.1100 2894.98950195313
258.9032 27.3021907806396
259.0300 255.361328125
259.1200 121.881698608398
259.9400 18.2047882080078
260.2100 7.26597881317139
260.8200 21.1899166107178
260.9300 17.338415145874
261.0806 70.1638565063477
261.8500 29.5904541015625
261.9700 170.53581237793
262.0800 132.663177490234
262.2000 14.8194198608398
262.9000 19.8721542358398
262.9900 226.549942016602
263.1000 205.091186523438
263.9500 86.0657958984375
264.1000 2904.84692382813
265.1200 7158.48583984375
266.1100 29271.38671875
267.1100 39440.81640625
268.1200 39755.16015625
269.1100 85974.734375
270.1100 320461.375
271.1099 71218.359375
272.1200 12327.47265625
273.0420 777.204345703125
273.1200 910.399536132813
273.9100 19.9010601043701
274.0400 190.371383666992
274.1800 23.165828704834
274.9720 262.045288085938
275.1100 67.5210571289063
275.7879 5.00182867050171
275.9200 43.1524505615234
276.0200 139.455490112305
276.1600 50.853816986084
276.9771 327.671936035156
277.0623 193.904220581055
278.1000 2688.12744140625
278.9664 46.399543762207
279.1300 1317.96032714844
280.1200 12680.9267578125
281.1199 6370.23388671875
282.1100 22913.4375
283.1300 22473.83984375
284.1300 505046.96875
285.1300 123317.7265625
286.1300 15628.3046875
287.0409 212.860229492188
287.1201 1349.16796875
287.9400 28.2830467224121
288.1087 73.4924011230469
288.2200 29.0503940582275
288.9402 160.834930419922
289.0362 158.174514770508
289.1700 21.7928371429443
289.9900 180.787322998047
290.0808 196.169815063477
290.9556 28.9133491516113
291.0482 308.837219238281
291.1511 278.100341796875
292.0000 155.075103759766
292.1100 503.298736572266
292.9847 643.8271484375
293.0806 348.682495117188
294.0433 319.043029785156
294.1400 5231.30029296875
295.1002 1972.19543457031
296.1100 4612.50830078125
297.0999 1728.08447265625
297.2100 87.7001800537109
298.1400 9788.5322265625
298.9318 21.6640300750732
299.1200 2285.68383789063
299.2197 332.751281738281
300.0100 143.550827026367
300.1200 338.751312255859
300.9400 7.38975381851196
301.0400 48.9753303527832
303.2200 10.1536502838135
303.9100 10.5929660797119
304.1400 28.2606906890869
304.2700 9.07407093048096
304.9800 28.7689037322998
305.0900 44.6593818664551
305.9500 30.6986904144287
306.0600 96.2462997436523
306.1600 40.7075881958008
306.8012 6.95897102355957
307.0700 126.356491088867
307.1500 260.724853515625
308.0600 209.422103881836
308.1500 597.301513671875
309.0100 154.193283081055
309.1700 157.303466796875
310.0800 961.957946777344
310.1600 627.490783691406
311.0900 594.110229492188
311.1600 617.834167480469
312.1800 13046.8349609375
313.2000 9152.3046875
314.1400 548.215637207031
314.2100 2034.05151367188
314.9100 23.3251495361328
315.0700 109.550895690918
315.1800 286.548767089844
316.0100 11.5728139877319
316.1300 24.6404361724854
317.1100 27.4484748840332
317.8700 15.9605150222778
318.0600 9.65535449981689
319.1200 7.63004779815674
319.3100 15.4244766235352
320.0600 50.4971046447754
320.2000 44.3327445983887
320.3700 9.01732158660889
320.9700 30.4306812286377
321.0900 76.5843124389648
321.2100 72.2483520507813
322.1900 19228.724609375
323.1800 7535.20703125
324.2000 299621.6875
325.2000 81702.203125
326.2000 16699.1796875
327.1800 2916.4296875
328.1000 117.701644897461
328.1900 254.756072998047
328.2900 33.0771713256836
329.0400 7.85844945907593
329.2700 27.3887329101563
330.8300 13.1238069534302
334.0500 9.66508388519287
334.8200 8.97090530395508
335.0400 25.5312175750732
335.4600 8.80569076538086
335.5900 9.74443435668945
335.7900 9.80775451660156
336.0200 14.8219051361084
336.2000 9.14229297637939
336.4800 16.472541809082
336.6100 29.6755313873291
336.7700 7.66989660263062
336.9000 60.7325019836426
337.0500 63.0003242492676
337.3200 52.981990814209
337.4900 32.8079261779785
338.0200 138.890930175781
338.1500 568.165710449219
338.3100 104.212707519531
339.1700 2389.71411132813
340.2100 291833.46875
341.2300 608254.125
342.2200 150034.171875
343.2200 19995.798828125
344.1700 332.930236816406
344.2400 1483.47277832031
345.0400 49.555965423584
345.1400 47.8927612304688
345.2600 23.2179412841797
348.9476 14.2019863128662
352.8500 20.3436851501465
367.0600 11.2037954330444
