#"+EI Scan (rt: 1.690-1.737 min, 9 scans) MIX8-2.D  Subtract "
#Point,X(Thompsons),Y(Counts)
41.0 6357.697265625
42.0 1355.74975585938
43.0 1082.74157714844
44.0 1470.62426757813
45.0 25.0930404663086
50.0 1074.29870605469
51.0 4018.23388671875
52.0 475.111114501953
53.0 166.768402099609
54.0 457.09716796875
55.0 468.2255859375
56.0 3942.50537109375
56.9 92.6985931396484
57.0 476.433532714844
58.1 10434.076171875
59.0 403.550323486328
61.9 22.3947010040283
62.0 18.7458877563477
63.0 208.822692871094
64.0 18.0145454406738
65.0 147.145416259766
67.0 86.1069259643555
68.0 284.246948242188
69.0 228.886367797852
70.0 1580.39416503906
71.0 434.263610839844
73.0 56.1908340454102
74.0 318.067626953125
75.0 291.234405517578
76.0 549.70947265625
77.0 9410.0546875
78.0 1081.83703613281
79.0 521.337036132813
80.0 19.8333511352539
82.0 18.1404590606689
84.0 2061.21899414063
85.0 51.0238189697266
85.1 491.862365722656
86.1 82733.390625
87.1 5121.77783203125
88.0 120.261993408203
89.0 241.276931762695
90.0 61.2267036437988
91.0 752.23095703125
92.0 69.8437805175781
95.9 0.469192504882813
96.0 47.9585380554199
102.0 60.2102661132813
103.0 242.170715332031
104.0 238.469512939453
105.0 4309.52783203125
106.0 716.079650878906
107.0 38.0671844482422
115.0 383.567352294922
116.0 169.647064208984
117.0 340.073150634766
118.0 319.496215820313
127.0 19.6784362792969
128.0 113.602172851563
129.0 20.1032180786133
130.0 93.1659851074219
131.0 73.3038024902344
132.0 179.067687988281
133.0 242.091537475586
134.0 1407.17346191406
135.0 195.385116577148
144.0 65.9041519165039
146.0 352.655151367188
147.0 173.902557373047
148.0 179.548767089844
149.0 127.007308959961
162.0 1083.79235839844
163.0 135.453323364258
190.9 82.7914886474609
207.9 48.2578430175781
