#"+EI Scan (rt: 1.877-1.924 min, 9 scans) MIX1-8.D  Subtract "
#Point,X(Thompsons),Y(Counts)
40.0 93.9095230102539
41.0 1500.908203125
42.0 5827.05810546875
43.0 3552.69750976563
44.0 315.656005859375
45.0 92.6825866699219
50.0 1512.77514648438
51.0 3393.93432617188
52.0 908.68310546875
53.0 1137.87536621094
54.0 716.566772460938
55.0 1305.24157714844
56.0 24214.3359375
57.1 4253.42236328125
58.1 233424.984375
59.1 8772.25390625
60.0 89.3000335693359
60.9 19.1081657409668
62.0 597.388549804688
63.0 2245.6298828125
64.0 756.121337890625
65.0 1646.38269042969
66.0 249.184997558594
66.9 17.5994510650635
67.0 19.3880996704102
71.1 21.0842685699463
72.9 85.2102203369141
73.9 28.4595260620117
74.0 556.445190429688
75.0 733.4736328125
76.0 1130.61486816406
77.0 9136.2890625
78.0 2593.80102539063
79.0 6061.482421875
80.0 329.452453613281
80.2 172.635894775391
80.7 17.4921875
84.1 17.5623207092285
85.9 46.224723815918
86.1 73.2145080566406
86.9 64.8970947265625
87.0 126.186065673828
87.8 106.011627197266
89.0 3709.08862304688
90.0 2746.2490234375
91.0 2849.64672851563
92.0 283.660797119141
93.0 40.0539283752441
95.9 16.9059219360352
96.0 52.8197288513184
97.9 37.2802352905273
101.0 139.279235839844
102.0 1080.91772460938
103.0 5191.03466796875
104.0 1628.47802734375
105.0 4451.13134765625
106.0 682.859558105469
106.9 19.4627513885498
115.0 967.042724609375
116.0 325.191345214844
117.0 710.074890136719
118.0 340.974548339844
119.0 1082.07727050781
119.9 149.469146728516
127.0 129.45295715332
128.0 341.705139160156
129.0 181.647750854492
130.0 278.190032958984
131.0 530.172607421875
132.0 507.137969970703
133.0 5980.59814453125
134.0 776.518737792969
135.0 86.7186965942383
143.0 41.2457427978516
144.0 319.419921875
145.0 140.931579589844
146.0 505.353881835938
147.0 739.406860351563
148.1 1184.84338378906
157.0 18.1921482086182
158.0 164.312637329102
159.0 19.2908000946045
160.0 762.564758300781
161.0 351.008728027344
162.0 245.44499206543
172.0 16.7572555541992
173.0 16.7990779876709
174.0 130.209167480469
175.0 215.415115356445
176.0 451.427856445313
177.0 18.3421859741211
189.0 39.8263359069824
190.0 39.6460494995117
191.0 150.585739135742
207.0 54.8762817382813
208.0 121.360870361328
