#"+EI Scan (rt: 3.194-3.241 min, 9 scans) MIX1-9.D  Subtract "
#Point,X(Thompsons),Y(Counts)
41.0 1119.67077636719
42.0 1729.20715332031
43.0 1405.05334472656
44.0 15909.1826171875
45.0 470.358184814453
50.0 137.918899536133
51.0 230.66325378418
53.0 210.808807373047
55.0 279.450469970703
56.0 439.624725341797
57.0 159.915222167969
58.0 180.332214355469
60.9 40.0134735107422
62.0 403.507354736328
63.0 1408.69287109375
64.0 187.073348999023
65.0 1866.85266113281
66.0 133.788940429688
68.0 85.3368911743164
69.0 19.9526462554932
70.0 941.274169921875
70.9 34.2209739685059
71.0 91.1981506347656
73.9 43.3955001831055
77.0 155.715621948242
79.0 85.3313827514648
84.0 1362.546875
85.0 224.182052612305
86.1 22967.55078125
87.1 1390.16809082031
89.0 18.9970188140869
90.9 141.345794677734
91.0 861.254455566406
92.0 121.204620361328
92.1 20.4126434326172
93.0 120.473846435547
103.0 17.0784797668457
105.0 57.447135925293
117.9 22.024393081665
119.0 331.776733398438
119.9 118.88720703125
120.0 37.3886795043945
121.0 1541.81945800781
121.9 177.788848876953
132.9 14.1169948577881
134.9 98.3124465942383
146.0 180.626815795898
147.0 163.101654052734
147.9 78.4332733154297
148.0 73.893928527832
149.0 3061.11157226563
150.0 455.111175537109
176.9 28.1400279998779
177.9 17.9684829711914
178.0 96.2473449707031
192.0 109.951469421387
207.0 19.6917114257813
207.9 36.4484634399414
