#"+EI Scan (rt: 3.194-3.241 min, 9 scans) MIX1-5.D  Subtract "
#Point,X(Thompsons),Y(Counts)
41.0 1097.77587890625
42.0 1721.32385253906
43.0 1417.23168945313
44.0 15630.515625
45.0 476.798950195313
49.9 132.194183349609
51.0 238.485382080078
51.9 17.2907218933105
53.0 197.502075195313
55.0 310.846160888672
56.0 428.738342285156
57.0 47.8836631774902
57.0 119.352691650391
58.0 119.16178894043
60.9 18.5745391845703
62.0 395.007904052734
63.0 1337.93994140625
64.0 182.796310424805
65.0 1873.43774414063
66.0 126.464653015137
68.0 64.5895538330078
69.0 39.6063995361328
70.0 915.849304199219
71.0 119.99666595459
74.0 62.819221496582
75.0 17.7694034576416
76.9 174.664108276367
78.9 74.1410980224609
84.0 1324.333984375
85.0 104.507659912109
85.1 121.710975646973
86.1 22561.86328125
87.1 1379.38269042969
89.0 33.6253395080566
91.0 951.595703125
92.0 154.546981811523
93.0 84.6448287963867
95.9 17.7163982391357
105.0 19.0085258483887
118.0 23.4168300628662
119.0 327.769561767578
120.0 152.8154296875
121.0 1526.3564453125
122.0 185.837890625
122.9 17.4144916534424
132.9 13.4992752075195
134.9 112.394927978516
146.0 163.467575073242
146.8 21.3516330718994
147.0 141.447677612305
148.0 145.302947998047
149.0 3022.494140625
150.0 499.465179443359
177.0 43.2986259460449
178.0 92.8149108886719
192.0 125.122543334961
