#"+EI Scan (rt: 5.560-5.584 min, 5 scans) MIX1-10.D  Subtract "
#Point,X(Thompsons),Y(Counts)
40.0 121.082641601563
41.0 9451.8212890625
42.0 2976.45532226563
43.0 3374.75756835938
44.0 3361.09814453125
45.0 128.983154296875
50.0 431.725341796875
51.0 995.84228515625
52.0 268.555908203125
53.0 1405.77221679688
54.0 981.160339355469
55.0 5955.07958984375
56.0 5904.45751953125
57.1 8487.98046875
58.0 545.199157714844
60.9 46.3082122802734
61.0 140.624053955078
62.0 1289.58288574219
63.0 5541.80419921875
64.0 928.265319824219
65.0 10023.7314453125
66.0 753.384643554688
67.0 284.294860839844
68.0 821.283386230469
69.0 479.192810058594
70.0 5982.2421875
71.0 599.692504882813
72.1 16674.66015625
73.0 918.460205078125
74.0 220.826446533203
75.0 88.3427886962891
75.1 43.8552513122559
76.0 296.357025146484
77.0 1135.32983398438
78.0 311.727600097656
79.0 535.742370605469
80.0 173.302429199219
81.0 194.262115478516
82.0 412.108215332031
83.0 296.034118652344
84.1 3776.75512695313
85.0 415.929748535156
86.1 4154.61474609375
87.0 309.240203857422
89.0 394.350555419922
89.9 188.772399902344
91.0 3199.53051757813
92.0 720.965454101563
93.0 895.277038574219
94.2 147.113388061523
95.3 311.572418212891
95.4 75.2190704345703
95.9 780.333251953125
97.0 33.9096412658691
98.0 728.973754882813
99.0 41.6030387878418
99.1 288.240661621094
100.0 135.413589477539
101.9 170.678939819336
103.0 366.651641845703
104.0 271.274749755859
105.0 404.130187988281
106.0 71.8187561035156
107.0 43.9984321594238
112.1 1205.18041992188
113.0 102.243057250977
114.9 57.8780708312988
115.0 305.336547851563
115.9 136.387680053711
117.0 271.148986816406
117.1 189.240036010742
118.0 231.135665893555
119.0 1038.31774902344
120.0 943.359741210938
121.0 10259.78125
122.0 1365.13403320313
123.0 378.057708740234
124.0 43.4802780151367
126.1 5299.79736328125
127.2 1260.51867675781
128.1 249509.53125
129.1 23208.478515625
130.1 1039.68334960938
131.0 356.657653808594
132.0 249.801071166992
133.0 228.721115112305
133.9 103.168258666992
134.1 38.8967437744141
135.0 5603.232421875
136.0 608.409545898438
145.0 205.509719848633
145.9 114.215148925781
146.0 182.87646484375
147.0 885.016418457031
148.0 1209.60571289063
149.0 17323.677734375
150.0 2374.39306640625
151.0 245.193878173828
159.0 45.8951034545898
160.0 116.463829040527
161.0 218.50715637207
162.0 391.200500488281
163.0 147.36408996582
164.0 667.575500488281
173.0 32.2228927612305
174.0 425.027435302734
175.0 339.424682617188
175.9 58.9906120300293
176.0 133.864990234375
177.0 707.105590820313
178.0 295.752868652344
188.0 67.1595001220703
190.0 201.177810668945
190.9 33.0519981384277
191.0 129.403533935547
192.0 128.998321533203
204.1 355.453094482422
205.0 133.210205078125
206.1 2775.8525390625
207.0 263.882690429688
208.0 51.8287658691406
230.1 41.472785949707
232.0 39.6271514892578
234.1 982.477355957031
235.1 112.336158752441
259.1 104.322189331055
