#"+EI Scan (rt: 1.393-1.434 min, 8 scans) MIX2-2.D  Subtract "
#Point,X(Thompsons),Y(Counts)
41.0 1075.88269042969
42.0 4374.587890625
43.0 3978.0595703125
44.0 390.337646484375
45.0 117.101867675781
47.4 19.4146785736084
48.9 148.803421020508
50.0 1876.93481445313
51.0 1518.67431640625
52.0 261.727416992188
53.0 319.543823242188
54.0 606.6904296875
55.0 1061.35131835938
56.1 15047.451171875
57.0 2519.478515625
58.1 93307.953125
59.1 3493.58056640625
60.0 51.4618988037109
60.9 41.4194068908691
61.0 154.604400634766
62.0 402.70947265625
63.0 763.81640625
64.0 172.004638671875
65.0 159.989013671875
65.9 119.891738891602
68.0 578.704895019531
69.0 1165.66149902344
70.0 380.449798583984
71.0 92.5014801025391
73.0 228.878082275391
74.0 1432.9619140625
75.0 6883.2099609375
76.0 908.732055664063
77.0 2437.423828125
78.0 568.030029296875
79.0 2208.5146484375
80.0 239.967956542969
81.0 237.077178955078
82.0 55.0925750732422
83.0 291.192474365234
84.0 125.016532897949
84.1 21.0607166290283
84.9 242.835723876953
86.0 114.854400634766
86.9 130.340148925781
87.9 39.5401344299316
89.0 612.442626953125
90.0 282.413818359375
91.0 552.988037109375
92.0 168.456451416016
93.0 302.775421142578
94.0 952.6904296875
95.0 10703.69140625
96.0 1354.25695800781
96.9 50.6986808776855
97.0 287.408874511719
97.9 64.7294464111328
98.9 134.002487182617
100.0 64.2417297363281
101.0 367.4765625
102.0 337.442504882813
103.0 2033.427734375
104.0 559.504638671875
105.0 2833.87109375
106.0 300.401245117188
107.0 399.910736083984
107.9 147.287857055664
109.0 838.137939453125
110.0 136.375350952148
111.0 1729.10473632813
111.9 139.637405395508
112.9 516.240478515625
114.0 66.1164093017578
115.0 839.21826171875
115.9 25.6543216705322
116.0 98.2131958007813
117.0 13.3611450195313
118.0 56.3956756591797
119.0 24.871826171875
120.0 183.833190917969
121.0 275.621063232422
122.0 306.31103515625
123.0 4821.41455078125
124.0 552.919067382813
124.9 104.176902770996
127.0 1.33001708984375
128.0 99.1692962646484
129.0 75.0951690673828
131.0 154.046020507813
132.0 147.633178710938
133.0 11160.51953125
134.0 1251.43212890625
135.0 360.241333007813
136.0 219.472320556641
137.0 103.767974853516
138.0 392.779724121094
139.0 3128.9794921875
139.9 281.138641357422
141.0 1071.12060546875
141.9 67.356330871582
147.0 65.6392364501953
148.0 230.716979980469
149.0 230.346588134766
150.0 555.92724609375
151.0 677.959655761719
152.0 282.626281738281
155.8 0.477523803710938
155.9 2.51940155029297
161.0 15.0063934326172
161.9 22.3286075592041
162.0 63.9252624511719
162.9 22.5652446746826
164.0 90.2123413085938
164.9 21.004566192627
165.0 217.747650146484
166.0 777.953918457031
167.0 137.613021850586
176.0 71.1356658935547
178.0 78.1910552978516
180.0 88.9668426513672
180.9 23.2198238372803
181.1 55.0107269287109
182.0 76.6274871826172
208.0 5.71281433105469
209.0 20.8515110015869
