#"+EI Scan (rt: 2.763-2.815 min, 10 scans) MIX2-2.D  Subtract "
#Point,X(Thompsons),Y(Counts)
41.0 1168.86108398438
42.0 6473.2529296875
43.0 2069.4423828125
44.0 33561.62109375
45.0 1007.24493408203
50.0 753.094970703125
51.0 1362.58813476563
52.0 362.043884277344
53.0 1416.1826171875
54.0 428.309387207031
55.0 1026.99145507813
56.0 4293.70703125
57.0 640.517883300781
58.0 258.6669921875
61.0 423.093902587891
62.0 1920.15844726563
63.0 6063.5048828125
64.0 1456.55773925781
65.0 12152.8935546875
66.0 1013.828125
66.9 174.040252685547
68.0 337.573883056641
69.0 234.257476806641
70.0 4644.044921875
71.1 1427.66662597656
72.1 138247.578125
73.1 6884.794921875
74.0 728.118530273438
75.0 453.177490234375
76.0 305.926788330078
77.0 1102.12158203125
78.0 366.026580810547
79.0 486.579895019531
80.0 58.3428535461426
80.9 68.3078384399414
89.0 388.190338134766
90.0 276.606140136719
91.0 4167.173828125
92.0 1278.36376953125
93.0 707.48779296875
94.0 116.512168884277
95.0 132.643737792969
95.8 31.2528324127197
96.0 49.4054718017578
101.1 15.1472949981689
102.0 150.494842529297
102.9 190.670074462891
103.0 299.879821777344
103.9 49.5370826721191
104.0 206.993804931641
105.0 326.515655517578
106.0 73.3255386352539
107.0 336.555511474609
107.9 59.3556900024414
114.9 22.1008529663086
115.0 52.999195098877
117.0 125.038314819336
118.0 255.975830078125
118.9 30.2350769042969
119.0 1083.24926757813
120.0 665.828125
121.0 3363.30224609375
122.0 1065.66394042969
122.9 116.286903381348
123.0 27.5574893951416
128.0 271.333435058594
128.9 54.4824600219727
130.0 52.6487007141113
130.9 25.547191619873
131.0 241.136276245117
131.9 177.738983154297
133.0 200.120651245117
134.0 93.5497131347656
135.0 1734.00451660156
136.0 218.477462768555
144.0 15.7843751907349
145.0 15.4099855422974
146.0 346.661437988281
147.0 501.036560058594
148.0 467.70068359375
149.0 15652.9208984375
150.0 1901.21081542969
151.0 316.078002929688
160.0 35.9182243347168
162.0 71.2906036376953
175.0 49.6453094482422
176.0 237.702194213867
177.0 209.262130737305
178.0 1660.62170410156
179.0 186.241058349609
190.0 74.3849029541016
192.0 34.0364265441895
204.0 41.0305061340332
205.0 34.9770584106445
206.0 123.22908782959
206.1 25.6712856292725
207.0 62.459716796875
208.0 14.6470069885254
220.0 349.912414550781
221.0 154.220184326172
