#"+EI Scan (rt: 3.981-4.027 min, 9 scans) MIX2-4.D  Subtract "
#Point,X(Thompsons),Y(Counts)
41.0 777.017578125
42.0 3840.08422851563
43.0 1042.87609863281
44.0 1229.82836914063
45.0 173.860687255859
46.0 182.51921081543
50.0 221.576644897461
51.0 429.550598144531
52.0 92.1250610351563
53.0 528.410400390625
54.0 169.345703125
55.0 1409.99267578125
56.0 2803.33154296875
57.0 845.958312988281
58.0 6556.75
59.0 246.549392700195
61.0 81.9653701782227
62.0 661.900146484375
63.0 2346.2919921875
64.0 349.157836914063
65.0 3373.8115234375
66.0 274.135162353516
67.0 89.8076324462891
68.0 401.9140625
69.0 132.528610229492
70.0 1790.9970703125
71.1 5267.5830078125
72.1 1987.86779785156
73.0 115.986747741699
73.9 138.300765991211
75.0 64.1560363769531
75.9 96.0390777587891
77.0 470.204803466797
77.9 98.6360702514648
78.0 44.082389831543
79.0 245.568496704102
81.1 17.4868850708008
82.0 243.686492919922
83.0 158.606842041016
84.1 1512.84362792969
85.0 330.125915527344
85.9 45.4442520141602
86.0 90.8892822265625
88.9 120.486167907715
89.0 50.7340087890625
89.9 18.0088863372803
91.0 1312.02856445313
92.0 218.082244873047
93.0 20.1070022583008
95.9 82.907096862793
96.1 33.1109504699707
98.0 29.6852645874023
98.1 756.441589355469
99.0 25.2217597961426
99.1 367.309448242188
100.1 91682.2578125
101.1 6379.32373046875
102.1 278.138244628906
102.2 22.4614696502686
102.7 23.9190254211426
102.9 118.017753601074
103.0 27.8556861877441
103.9 115.297050476074
105.0 256.466644287109
114.9 65.093017578125
115.0 88.9101181030273
116.9 63.627571105957
117.1 25.7212009429932
118.0 106.011543273926
119.0 473.372985839844
120.0 310.944793701172
121.0 2987.2275390625
122.0 397.031311035156
131.0 101.973007202148
131.9 85.0476913452148
132.0 23.949836730957
132.9 135.504989624023
135.0 999.205505371094
136.0 41.6940727233887
144.9 19.5321636199951
145.0 40.5041923522949
145.9 64.0101013183594
146.9 23.6794281005859
147.0 396.777496337891
148.0 145.745971679688
149.0 3941.1953125
150.0 424.784759521484
151.0 21.841739654541
159.9 36.7006607055664
161.9 58.9415702819824
164.0 268.104827880859
175.0 166.68408203125
176.0 110.889343261719
177.0 200.134872436523
178.0 468.017456054688
187.9 39.5512428283691
190.0 81.0899276733398
191.0 25.2521324157715
204.0 215.503677368164
206.0 313.91064453125
207.0 81.0004272460938
208.0 82.0977325439453
