#"+EI Scan (rt: 3.981-4.028 min, 9 scans) MIX2-7.D  Subtract "
#Point,X(Thompsons),Y(Counts)
41.0 741.822448730469
42.0 3894.18603515625
43.0 1034.515625
44.0 1211.72583007813
45.0 182.945709228516
46.0 198.715896606445
50.0 234.746765136719
51.0 482.422790527344
52.0 101.72989654541
53.0 515.824951171875
54.0 194.128509521484
55.0 1455.82043457031
56.0 2845.39306640625
57.0 847.239624023438
58.0 6742.6005859375
59.0 242.093673706055
61.0 68.694580078125
62.0 652.183349609375
63.0 2325.4892578125
64.0 339.580322265625
65.0 3359.76611328125
66.0 250.31901550293
67.0 78.3212738037109
67.1 21.4961280822754
68.0 452.651733398438
68.9 78.3014144897461
69.0 25.7817668914795
70.0 1747.513671875
71.1 5337.1953125
72.1 1940.982421875
73.0 93.1084060668945
73.1 21.790506362915
73.9 52.5321922302246
73.9 56.1832008361816
74.1 25.0668849945068
74.9 19.5711669921875
75.0 22.8974018096924
75.9 71.1379776000977
77.0 411.648345947266
78.0 148.731262207031
79.0 220.32600402832
82.0 234.202087402344
83.0 115.910697937012
83.1 22.4866847991943
84.1 1478.66882324219
85.0 277.627258300781
86.0 133.827514648438
89.0 162.36784362793
89.9 19.5439071655273
91.0 1354.26831054688
91.9 250.920471191406
92.9 41.1975860595703
94.2 17.8116683959961
96.0 79.9796981811523
98.0 785.620971679688
99.1 403.698638916016
100.1 91264.5390625
101.1 6348.75732421875
102.0 195.896087646484
102.1 119.170951843262
102.8 31.8734130859375
102.9 109.872772216797
104.0 112.881744384766
105.0 262.487915039063
114.9 97.3005676269531
115.1 21.5646553039551
116.9 88.5281219482422
118.0 40.2751693725586
118.1 23.4955081939697
119.0 480.813903808594
120.0 303.215362548828
121.0 2966.07763671875
121.9 391.176940917969
130.9 110.882133483887
132.0 73.3758544921875
132.1 20.5287837982178
133.0 94.1897735595703
135.0 965.976440429688
135.9 72.9456787109375
144.9 48.0329627990723
145.0 19.7533950805664
146.0 86.9293899536133
147.0 427.259216308594
148.0 133.097244262695
149.0 3983.40844726563
149.9 406.185089111328
160.0 36.446891784668
161.9 22.9839134216309
162.9 19.1843338012695
164.0 252.194931030273
175.0 168.80029296875
176.0 98.1700057983398
177.0 172.853820800781
178.0 470.011840820313
188.0 55.5976295471191
190.0 68.1415710449219
191.0 35.5890045166016
204.0 207.983871459961
205.1 18.016580581665
206.0 291.440307617188
207.0 49.6220703125
207.9 62.4779968261719
