#"+EI Scan (rt: 1.772-1.813 min, 8 scans) MIX3-3.D  Subtract "
#Point,X(Thompsons),Y(Counts)
41.0 821.244140625
42.0 4552.05322265625
43.1 1585.78405761719
44.1 132394.6875
45.0 3781.52880859375
48.9 85.4089202880859
49.1 19.4996566772461
50.0 2751.53540039063
51.0 10612.564453125
52.0 2188.25024414063
53.0 1916.51611328125
54.0 439.213317871094
55.0 304.614959716797
56.0 2257.65307617188
57.0 425.609283447266
58.3 51.0228271484375
58.5 19.343786239624
58.6 48.6633224487305
60.9 218.310653686523
62.0 934.415161132813
63.0 2107.73510742188
64.0 518.098388671875
65.0 1290.98461914063
66.0 468.355133056641
67.0 615.683776855469
67.1 62.8614120483398
68.0 111.921714782715
69.0 20.460334777832
73.0 353.9931640625
74.0 726.4248046875
75.0 747.057556152344
76.0 1330.19323730469
77.0 12181.1376953125
78.0 4802.6298828125
79.0 2713.0234375
80.0 654.842407226563
81.5 3548.30859375
85.9 20.4023342132568
86.9 23.6649875640869
87.0 84.1756591796875
88.7 48.4023551940918
88.9 560.708984375
89.0 323.305816650391
90.0 279.249816894531
90.9 195.685760498047
91.0 666.174438476563
92.0 274.727569580078
93.0 273.151062011719
94.0 121.146667480469
95.0 19.1101036071777
95.9 21.6985111236572
100.9 40.7025833129883
102.0 323.328826904297
103.0 1238.84484863281
104.0 1250.37243652344
105.0 3562.03271484375
106.0 3147.96997070313
107.0 1050.94348144531
108.0 120.289733886719
114.9 72.2982559204102
116.0 210.026306152344
117.0 298.095397949219
118.0 371.468353271484
119.0 229.431533813477
120.0 387.2275390625
120.9 51.3486671447754
121.0 620.807800292969
122.0 222.725646972656
129.9 19.0976371765137
131.0 567.765441894531
131.9 209.492645263672
133.0 439.358062744141
134.0 1165.26196289063
135.0 20730.984375
136.0 45641.2265625
137.0 4261.1142578125
137.9 70.9087371826172
138.0 285.793121337891
139.0 45.7290725708008
145.0 38.4424438476563
145.9 46.484130859375
147.0 340.970733642578
147.9 35.9140968322754
148.0 422.943969726563
148.9 49.8372421264648
160.0 64.4958267211914
161.0 174.606872558594
162.0 371.81591796875
163.0 628.401062011719
164.0 888.159790039063
165.0 50.9008407592773
175.9 21.1847667694092
176.0 91.7600708007813
177.0 342.789825439453
178.1 386.699005126953
178.9 30.4428215026855
179.1 1178.63061523438
180.0 87.7289276123047
191.0 334.203948974609
207.0 112.459533691406
208.0 81.3204879760742
237.1 31.6891460418701
