#"+EI Scan (rt: 1.888-1.993 min, 19 scans) MIX3-2.D  Subtract "
#Point,X(Thompsons),Y(Counts)
41.0 263.761932373047
41.9 51.414379119873
42.0 583.904541015625
43.0 338.664947509766
44.0 176.549438476563
49.9 191.616622924805
50.9 120.100105285645
52.0 17.7795257568359
53.0 8.02170848846436
54.0 39.0005989074707
55.0 105.433967590332
56.0 451.247802734375
57.0 693.099609375
58.0 652.697631835938
62.0 80.8398742675781
63.0 367.153930664063
63.9 17.2059936523438
65.0 716.418518066406
65.9 10.693060874939
69.1 8.34680461883545
70.0 578.890380859375
71.0 156.285842895508
72.1 9061.0361328125
73.0 537.124145507813
74.0 8.53592586517334
75.0 156.177062988281
77.0 120.116424560547
79.0 8.555832862854
89.0 154.122436523438
89.9 57.4271430969238
91.0 180.627212524414
91.0 748.789428710938
92.0 53.2076835632324
95.9 17.1810531616211
105.0 87.4719161987305
105.1 7.98770046234131
110.9 164.814086914063
113.0 8.58140850067139
115.0 32.8005523681641
118.0 8.11616897583008
119.0 478.316101074219
120.0 21.399845123291
121.0 446.180297851563
132.9 27.1341037750244
134.0 86.140754699707
135.0 66.5926742553711
136.0 40.8316802978516
138.9 118.931625366211
144.0 7.94177103042603
147.0 51.2351112365723
149.0 1322.06433105469
149.9 126.690979003906
162.0 111.617599487305
190.9 8.06920719146729
191.9 28.7021293640137
207.0 13.3333740234375
207.9 24.4807891845703
209.0 8.02587604522705
