#"+EI Scan (rt: 2.092-2.139 min, 9 scans) MIX3-6.D  Subtract "
#Point,X(Thompsons),Y(Counts)
41.0 5567.52294921875
42.0 8067.7431640625
43.0 1382.3544921875
44.0 6409.0888671875
45.0 211.675216674805
48.9 104.076751708984
49.0 24.5361938476563
50.0 3024.03344726563
51.0 1960.36242675781
52.0 312.835052490234
53.0 274.311706542969
54.0 773.527038574219
55.0 999.989868164063
56.0 5513.50732421875
57.0 14676.56640625
58.0 711.608337402344
60.9 280.760437011719
61.9 242.044250488281
63.0 525.435729980469
64.0 20.8956241607666
64.9 62.6043434143066
65.0 83.5011520385742
68.0 449.281036376953
69.0 289.781494140625
69.1 75.431884765625
70.1 7123.060546875
71.1 1317.86608886719
72.1 133018.8125
73.1 6788.89599609375
74.0 1760.69323730469
75.0 8008.533203125
76.0 1948.56665039063
77.0 1479.31225585938
78.0 240.672088623047
79.0 18.735689163208
83.9 254.543151855469
85.0 957.621765136719
85.9 182.668029785156
86.9 398.876495361328
89.0 559.272827148438
90.0 120.106063842773
91.0 353.359741210938
95.9 16.9326362609863
96.9 57.2455711364746
98.0 19.6241683959961
98.9 123.447647094727
101.0 226.728515625
101.9 93.7431716918945
102.0 119.371704101563
102.9 62.7420043945313
103.0 106.22607421875
104.0 169.629119873047
105.0 163.683837890625
110.0 270.342895507813
111.0 11782.5693359375
112.0 1160.61267089844
113.0 3825.1796875
113.9 426.484924316406
115.0 468.718200683594
116.0 196.701278686523
117.0 260.698364257813
117.9 153.591125488281
119.0 70.3859558105469
122.9 44.6608085632324
123.0 17.378490447998
125.0 773.872314453125
126.0 96.2223205566406
127.0 490.498260498047
128.0 229.52507019043
129.0 22.4455242156982
130.0 93.9720077514648
131.0 99.6166000366211
132.0 96.1081008911133
132.9 151.841018676758
135.0 77.2865219116211
135.9 138.97883605957
136.9 159.186904907227
138.0 202.177337646484
139.0 6419.3720703125
139.9 664.367431640625
141.0 2180.6455078125
141.9 179.436584472656
144.0 86.3886032104492
145.0 191.271896362305
146.0 321.276824951172
147.0 2195.83544921875
148.0 227.429794311523
148.9 63.5247039794922
149.0 49.7471733093262
150.9 55.0199394226074
151.9 25.5111484527588
152.0 95.9897613525391
154.0 1041.07666015625
155.0 129.711944580078
156.0 375.221008300781
157.0 17.647331237793
160.0 42.1181182861328
164.0 106.967636108398
165.0 18.9118270874023
165.9 21.9625568389893
166.0 199.785797119141
166.9 214.134796142578
167.9 91.0565872192383
168.9 68.3713226318359
180.0 177.601181030273
181.0 144.640914916992
182.0 1444.96142578125
183.0 194.593902587891
184.0 434.598999023438
207.0 54.060302734375
208.0 103.127082824707
209.0 35.6446762084961
