#"+EI Scan (rt: 7.006-7.041 min, 7 scans) MIX3-8.D  Subtract "
#Point,X(Thompsons),Y(Counts)
41.0 3528.13940429688
42.0 4687.75732421875
43.0 1749.40576171875
44.0 236.546997070313
45.0 21.7836742401123
49.9 296.777679443359
51.0 736.938293457031
52.0 198.400314331055
53.0 722.724487304688
54.0 1858.88635253906
55.0 5994.9541015625
56.0 1902.67163085938
57.0 689.572387695313
62.0 92.7145919799805
63.0 467.028045654297
63.8 31.6300144195557
64.9 89.1721267700195
67.0 397.427398681641
68.0 1352.77722167969
69.1 3380.416015625
70.0 2619.46752929688
71.0 506.414642333984
72.1 284.253662109375
73.0 93.672607421875
74.0 450.584045410156
75.0 927.437133789063
76.0 534.299438476563
77.0 2291.87377929688
77.9 216.028427124023
78.1 39.7960090637207
79.0 89.1043014526367
80.0 419.309875488281
81.0 307.995819091797
82.0 551.477416992188
82.1 119.75415802002
83.0 313.040985107422
83.1 34.1462173461914
84.1 3878.79443359375
85.0 388.919403076172
85.9 80.8768844604492
87.0 240.02326965332
88.9 163.037384033203
90.9 62.9884033203125
91.0 135.952087402344
92.9 22.8694667816162
94.0 504.998596191406
95.0 407.778717041016
96.1 4459.9326171875
97.1 4074.56567382813
98.1 1742.48803710938
99.0 310.168914794922
100.0 180.295135498047
101.0 1377.02807617188
102.0 322.634857177734
104.9 35.6160621643066
105.0 153.572311401367
108.0 81.5290298461914
108.1 37.1164283752441
109.0 75.71630859375
110.1 1701.01538085938
110.8 39.0104789733887
111.0 241.508377075195
113.0 46.2530822753906
115.0 614.614624023438
118.8 143.982925415039
119.0 85.234504699707
122.0 581.029418945313
123.0 99.1428680419922
124.1 4110.41015625
125.1 1276.09143066406
126.1 177393.21875
127.1 34527.78515625
128.0 4096.38134765625
129.0 405.689727783203
132.9 17.9151000976563
135.0 150.291168212891
139.0 472.651214599609
140.0 218.8017578125
141.0 1331.55798339844
142.0 175.596221923828
146.9 39.6647148132324
148.9 22.802978515625
149.9 27.2542400360107
151.0 235.62727355957
152.0 785.860900878906
153.0 550.951110839844
154.0 480.507965087891
155.0 6668.5576171875
156.0 977.525329589844
162.9 91.7863235473633
164.0 55.5209007263184
165.0 764.337097167969
166.0 362.277679443359
167.0 408.459533691406
168.0 96.8074111938477
170.0 1370.52404785156
171.0 124.3291015625
176.9 106.756736755371
177.0 23.6900177001953
178.0 233.90461730957
179.0 128.964080810547
180.0 139.428176879883
181.0 438.68017578125
182.0 124.898612976074
183.0 214.371994018555
190.9 53.4851226806641
192.9 59.9942474365234
193.0 113.186836242676
194.0 51.0253639221191
195.0 206.891159057617
196.1 21.5216178894043
207.0 50.3802490234375
208.0 158.151885986328
209.0 114.927886962891
210.1 1197.02648925781
211.1 259.787902832031
212.1 224.983123779297
220.0 22.8821201324463
222.1 24.1253108978271
223.1 58.1532669067383
236.1 271.401397705078
238.1 341.524169921875
239.0 26.5243968963623
250.1 107.498550415039
252.9 78.7411651611328
279.1 204.413055419922
280.1 75.7313232421875
281.9 22.4124698638916
326.9 68.8277359008789
341.0 53.0916175842285
