#"+EI Scan (rt: 2.116-2.180 min, 12 scans) MIX4-4.D  Subtract "
#Point,X(Thompsons),Y(Counts)
41.0 448.977966308594
41.9 19.8954677581787
42.0 559.354919433594
43.0 379.265838623047
45.0 12.8388977050781
47.0 92.3623657226563
50.0 206.442977905273
51.0 526.636413574219
52.0 122.359100341797
53.0 190.754013061523
55.0 324.373779296875
56.0 2451.23999023438
57.0 675.336486816406
58.1 15335.4521484375
59.0 644.500793457031
62.0 30.41282081604
63.0 302.433410644531
64.0 64.49072265625
65.0 721.975341796875
69.9 32.9914703369141
71.0 307.494537353516
75.0 1131.13415527344
75.9 112.711387634277
77.0 1225.71362304688
78.0 366.6689453125
79.0 587.156188964844
85.0 276.526092529297
86.0 185.73551940918
89.0 680.5673828125
90.0 125.499809265137
91.0 1908.14379882813
92.0 115.537467956543
92.1 22.925802230835
95.9 2.7515869140625
101.9 35.4678192138672
102.9 23.2208690643311
103.0 534.199401855469
104.0 128.633148193359
105.0 1378.9794921875
106.0 134.02311706543
114.9 74.0438766479492
115.0 136.362869262695
117.0 76.2486572265625
119.0 6211.2822265625
120.0 598.962890625
128.0 25.9757232666016
129.0 103.240089416504
131.0 211.813064575195
132.0 14.740104675293
133.0 925.839233398438
134.0 209.469604492188
147.0 28.0986003875732
148.0 85.0441970825195
158.0 13.4276037216187
161.0 13.5136556625366
191.0 192.923828125
207.0 52.4115600585938
209.0 13.919017791748
