#"+EI Scan (rt: 2.116-2.180 min, 12 scans) MIX4-7.D  Subtract "
#Point,X(Thompsons),Y(Counts)
41.0 439.186584472656
42.0 615.294799804688
43.0 331.60009765625
44.9 12.7137336730957
47.0 54.7428245544434
47.1 18.3544864654541
49.9 221.302230834961
50.0 15.766209602356
51.0 547.870971679688
52.0 90.6288146972656
53.0 192.637130737305
54.0 12.7746858596802
55.0 304.009735107422
56.0 2445.84985351563
57.0 636.523986816406
58.1 15263.1689453125
59.0 645.1875
62.0 15.399468421936
63.0 320.481658935547
64.0 57.5451812744141
64.9 13.7784128189087
65.0 695.76708984375
66.0 13.1397666931152
70.0 32.1507911682129
71.0 315.075805664063
74.1 18.2485847473145
75.0 1159.00061035156
75.9 41.759895324707
77.0 1272.58984375
78.0 374.123321533203
78.9 15.2110948562622
79.0 551.93798828125
85.0 294.798828125
86.0 181.831344604492
87.9 13.2731637954712
89.0 652.18115234375
90.0 96.6648330688477
91.0 2007.39794921875
92.0 135.560806274414
102.0 59.8114814758301
102.1 12.6478338241577
103.0 559.087951660156
104.0 122.46435546875
105.0 1357.46618652344
105.8 17.4195575714111
106.0 136.465438842773
114.8 22.3003597259521
115.0 161.551483154297
117.0 77.8747406005859
119.0 6262.6015625
120.0 621.310607910156
120.9 15.0100021362305
128.0 12.8444051742554
129.0 100.433891296387
131.0 138.549865722656
131.0 59.8528022766113
133.0 938.23095703125
133.8 13.2517623901367
134.0 207.948471069336
135.0 12.757119178772
148.0 75.4441299438477
176.1 14.4595031738281
190.9 117.158973693848
191.0 85.1905288696289
207.0 10.546142578125
207.9 32.6437835693359
208.1 14.2661170959473
209.0 14.9320211410522
