#"+EI Scan (rt: 1.393-1.446 min, 10 scans) MIX5-3.D  Subtract "
#Point,X(Thompsons),Y(Counts)
41.0 554.757446289063
42.0 2027.18518066406
43.0 4489.47412109375
44.0 251.822998046875
44.9 140.098541259766
49.0 178.516296386719
50.0 2257.78686523438
51.0 1182.02001953125
52.0 122.484474182129
53.0 216.312438964844
54.0 304.96484375
55.0 455.172973632813
56.0 7303.6083984375
57.0 1224.15942382813
58.1 38199.43359375
59.0 1543.25231933594
59.9 16.1760482788086
60.9 265.096008300781
61.9 217.275619506836
62.9 298.732269287109
65.0 37.9044570922852
68.0 283.719848632813
69.0 581.246765136719
69.9 158.443084716797
71.0 41.6380920410156
73.0 418.783660888672
74.0 1479.56713867188
75.0 6255.04541015625
76.0 1167.47229003906
77.0 425.574279785156
79.0 16.4048404693604
80.9 107.951438903809
82.0 33.5616226196289
83.0 143.679275512695
83.9 161.054611206055
84.9 571.4013671875
86.0 73.1350555419922
86.0 24.3588981628418
86.9 251.408386230469
88.9 17.4307231903076
90.9 49.1051483154297
91.0 142.210632324219
92.0 18.1510238647461
92.9 107.714706420898
94.0 431.268218994141
95.0 4836.9208984375
96.0 668.998168945313
97.0 118.572410583496
101.0 134.919219970703
102.9 184.454284667969
103.9 17.7170333862305
104.0 75.9866180419922
105.0 143.498382568359
107.0 121.333656311035
107.9 17.4289836883545
108.0 31.7332706451416
109.0 392.790618896484
110.0 159.893127441406
111.0 8828.5732421875
111.9 708.270080566406
113.0 2819.53125
113.9 202.764404296875
114.9 16.4572010040283
119.0 271.484100341797
119.9 17.3855800628662
120.9 78.2848129272461
122.0 176.444152832031
123.0 2732.83081054688
124.0 226.431365966797
132.9 228.196823120117
133.9 16.7453212738037
134.9 114.313819885254
135.9 74.9602127075195
138.0 223.4619140625
138.1 48.2669448852539
139.0 17075.26171875
139.9 1407.95617675781
141.0 5543.83056640625
141.9 445.487976074219
150.0 182.037063598633
150.9 211.941848754883
152.0 62.4053535461426
155.8 16.7844734191895
155.9 46.0020446777344
165.0 57.3940544128418
166.0 186.426025390625
181.9 273.107147216797
190.9 51.2761116027832
207.0 91.5550537109375
208.0 54.7254333496094
209.0 54.9227066040039
