#"+EI Scan (rt: 1.393-1.445 min, 10 scans) MIX5-6.D  Subtract "
#Point,X(Thompsons),Y(Counts)
41.0 558.123901367188
42.0 1910.59143066406
43.0 4060.44750976563
44.0 306.12255859375
45.0 132.707656860352
48.9 165.784027099609
50.0 2127.119140625
51.0 1048.84790039063
52.0 124.217269897461
52.9 172.093139648438
54.0 303.701171875
55.0 423.4482421875
56.0 7025.76025390625
57.0 1121.80236816406
58.1 35063.79296875
59.0 1371.30053710938
59.9 38.154125213623
60.9 229.126434326172
62.0 213.498870849609
63.0 262.525238037109
63.1 17.0697059631348
67.9 238.942077636719
69.0 199.654754638672
69.0 343.980316162109
69.9 105.018325805664
70.0 54.0727844238281
72.9 354.22705078125
74.0 1378.45776367188
75.0 5768.52734375
76.0 1071.74768066406
77.0 456.052062988281
81.0 95.554313659668
81.9 56.0662155151367
83.0 105.448867797852
83.9 130.631805419922
84.8 17.7031745910645
84.9 493.836212158203
85.9 109.02180480957
86.0 16.5644340515137
86.9 193.263610839844
87.0 16.8244857788086
89.0 36.3603782653809
91.0 65.45068359375
91.9 15.6967849731445
92.9 20.5339279174805
93.0 73.8183975219727
94.0 404.313201904297
95.0 4558.98828125
96.0 643.841064453125
97.0 120.759170532227
100.9 159.10920715332
103.0 157.390167236328
103.9 79.230339050293
104.9 137.387588500977
107.0 122.02498626709
107.9 17.0305671691895
109.0 374.019927978516
109.9 53.4629974365234
110.0 114.903656005859
111.0 7949.4013671875
111.9 677.347290039063
113.0 2575.57788085938
113.9 183.474914550781
119.0 128.58332824707
119.9 2.8214864730835
120.9 102.833206176758
121.9 101.073692321777
122.1 20.0386142730713
123.0 2637.89892578125
123.9 225.194534301758
132.9 225.667465209961
134.9 17.5167331695557
135.0 84.6805038452148
136.0 114.905822753906
137.9 15.2909059524536
138.0 220.928588867188
139.0 15795.0498046875
139.9 1260.81982421875
140.9 5088.234375
141.9 383.423522949219
148.0 15.3881177902222
149.9 170.558547973633
150.9 203.223159790039
152.0 57.2316665649414
155.9 93.7680282592773
156.0 194.314666748047
157.9 35.7705421447754
164.9 15.6210632324219
165.0 20.3653144836426
165.9 19.0738010406494
166.0 173.121353149414
182.0 262.385437011719
184.0 18.0458469390869
207.0 85.8214111328125
208.0 46.4024963378906
209.0 23.5248050689697
