#"+EI Scan (rt: 1.801-1.848 min, 9 scans) MIX5-9.D  Subtract "
#Point,X(Thompsons),Y(Counts)
40.0 422.145355224609
41.0 4069.162109375
42.0 23547.013671875
43.0 3248.93603515625
44.1 21335.18359375
45.0 1138.59631347656
45.9 98.626350402832
50.0 2176.95703125
51.0 3770.40185546875
52.0 1258.18090820313
53.0 891.246337890625
54.0 1721.95764160156
55.0 4867.86474609375
56.0 21513.552734375
57.0 9137.8740234375
58.0 1687.58618164063
59.0 161.060119628906
61.0 307.946228027344
62.0 1752.08422851563
63.0 6314.4130859375
64.0 1917.56811523438
65.0 19826.154296875
66.0 1230.96728515625
66.9 40.253776550293
67.0 38.3996467590332
67.9 70.1999969482422
68.0 201.075317382813
69.1 140.840026855469
70.1 15694.9267578125
71.1 6414.21142578125
72.1 484171.75
73.1 24099.287109375
74.0 1140.08752441406
75.0 838.672973632813
76.0 615.309326171875
77.0 2351.89501953125
78.0 736.80419921875
79.0 589.547302246094
80.0 24.201244354248
80.3 16.9396114349365
81.0 18.5885829925537
85.0 134.41340637207
86.0 434.889556884766
87.0 526.072387695313
88.0 185.638061523438
89.0 6932.6513671875
90.0 2847.07495117188
91.0 27982.734375
92.0 2840.64770507813
93.0 360.3642578125
95.8 22.3383560180664
95.9 41.4227752685547
98.0 41.9533424377441
100.9 87.3963470458984
101.9 29.9327049255371
102.0 399.323486328125
103.0 1270.12158203125
104.0 703.423828125
105.0 3358.2451171875
106.0 361.831512451172
110.9 97.7892456054688
112.9 20.7751903533936
115.0 1994.57006835938
116.0 597.384765625
117.0 1499.01538085938
118.0 511.217498779297
119.0 13639.49609375
120.0 1407.13427734375
121.0 78.3918304443359
127.0 274.109375
128.0 491.403381347656
129.0 237.658126831055
129.0 123.375259399414
130.0 470.594451904297
131.0 809.684875488281
132.0 1005.83483886719
133.0 1548.51611328125
134.0 136.844787597656
138.9 14.9404983520508
144.0 374.905090332031
145.0 255.574630737305
145.1 569.945190429688
145.9 28.2050170898438
146.0 1018.21942138672
146.9 86.4246597290039
147.0 595.513488769531
148.1 2100.1337890625
149.0 254.103607177734
155.9 17.449369430542
158.0 276.207702636719
159.0 74.3204193115234
160.1 1546.22021484375
161.0 592.405517578125
162.0 419.372436523438
172.0 70.8417587280273
173.0 74.3795318603516
174.0 1381.16333007813
175.1 418.865997314453
176.1 819.780151367188
177.0 84.9856338500977
188.0 320.48291015625
189.0 222.546859741211
190.1 213.140609741211
191.1 488.708648681641
192.1 34.9937744140625
207.0 15.814697265625
