#"+EI Scan (rt: 1.795-1.848 min, 10 scans) MIX5-6.D  Subtract "
#Point,X(Thompsons),Y(Counts)
40.0 172.79411315918
41.0 3764.46899414063
42.0 21172.896484375
43.0 2892.134765625
44.0 18581.939453125
45.0 1036.4736328125
45.9 44.1779632568359
49.0 15.0747880935669
50.0 1958.11840820313
51.0 3405.30224609375
52.0 1080.12243652344
53.0 859.115905761719
54.0 1605.54296875
55.0 4309.9541015625
56.0 19333.30078125
57.0 8202.5595703125
58.0 1528.86547851563
58.9 130.957244873047
61.0 278.955718994141
62.0 1627.20825195313
63.0 5700.2685546875
64.0 1711.68041992188
65.0 18103.921875
66.0 1147.13732910156
66.9 36.7236099243164
67.0 41.046875
68.0 221.699661254883
69.0 37.0581703186035
69.1 79.6886444091797
70.1 14332.3798828125
71.1 5777.8037109375
72.1 439200.75
73.1 21613.09765625
74.0 1036.21154785156
75.0 744.26123046875
76.0 591.128295898438
77.0 2066.2236328125
77.9 25.5228271484375
78.0 677.858459472656
79.0 559.398620605469
79.7 17.5268039703369
80.0 19.261962890625
84.9 43.909553527832
85.0 36.106315612793
86.0 416.740051269531
86.9 348.448669433594
87.0 141.995269775391
88.0 168.120056152344
89.0 6132.72021484375
90.0 2624.08447265625
91.0 24945.634765625
92.0 2552.85034179688
93.0 301.963317871094
95.9 25.3484916687012
98.0 82.2797470092773
101.0 61.90966796875
102.0 397.092834472656
103.0 1189.84008789063
103.9 20.4586696624756
104.0 616.422180175781
105.0 3127.36206054688
106.0 324.410217285156
107.0 16.3383102416992
110.9 79.6162796020508
111.0 16.2443981170654
115.0 1818.18237304688
116.0 549.362121582031
117.0 1349.63671875
117.9 17.5034141540527
118.0 487.297760009766
119.0 12435.5595703125
119.9 28.1358680725098
120.0 1204.67834472656
121.0 76.0063018798828
127.0 279.835357666016
127.8 15.4655990600586
128.0 433.889068603516
129.0 297.603210449219
130.0 437.730377197266
131.0 697.947875976563
132.0 875.041015625
133.0 1392.90625
134.0 139.972076416016
138.9 62.4833831787109
144.0 361.018981933594
145.0 745.941711425781
145.9 44.4868392944336
146.0 897.754577636719
147.0 595.789123535156
148.1 1856.6923828125
149.0 174.517990112305
154.9 54.0514945983887
156.0 15.1845474243164
157.0 15.6007614135742
157.9 19.0690135955811
158.0 253.440505981445
159.0 20.2357330322266
160.1 1361.73120117188
161.0 589.518676757813
162.0 392.810668945313
163.1 16.8167381286621
172.0 40.2737312316895
173.1 21.6723136901855
174.1 1241.015625
175.1 334.239898681641
176.1 690.880859375
177.0 54.5644149780273
188.0 260.339660644531
189.0 70.0388031005859
189.1 74.3003234863281
190.1 173.242141723633
191.1 481.219635009766
192.0 15.4204664230347
192.1 17.5681343078613
