#"+EI Scan (rt: 1.912-1.970 min, 11 scans) MIX5-4.D  Subtract "
#Point,X(Thompsons),Y(Counts)
40.0 50.6319847106934
41.0 1765.1416015625
42.0 19151.978515625
43.0 2400.96923828125
44.0 16662.193359375
45.0 906.327087402344
46.0 31.1310138702393
46.1 13.6956520080566
49.0 253.812240600586
50.0 5402.57470703125
51.0 3292.71215820313
52.0 464.247467041016
53.0 483.895874023438
54.0 1540.7490234375
55.0 3226.4833984375
56.0 15615.1962890625
57.0 7044.83984375
58.0 950.816467285156
59.9 34.5791931152344
60.9 559.728149414063
62.0 454.798614501953
63.0 1032.24816894531
64.0 94.6387176513672
64.9 183.801208496094
65.0 14.4488143920898
65.8 28.7204418182373
66.0 14.2826042175293
68.0 213.033218383789
69.2 123.124977111816
70.1 11014.9501953125
71.1 4106.97509765625
72.1 306724.28125
73.1 15748.2333984375
74.0 3376.1279296875
75.0 14077.3291015625
76.0 3299.90869140625
77.0 2487.39086914063
77.9 15.6699953079224
78.0 403.806182861328
78.9 70.05224609375
79.1 37.4967765808105
83.9 476.265808105469
85.0 1808.58984375
86.0 467.339477539063
86.9 786.825439453125
88.0 116.756988525391
89.0 841.951965332031
89.9 43.9753913879395
90.0 130.497024536133
91.0 116.053894042969
96.0 156.513366699219
96.9 113.643058776855
98.0 136.008178710938
98.9 206.330093383789
100.0 53.6198081970215
101.0 412.099304199219
102.0 559.780700683594
102.9 41.2501373291016
103.0 1343.78540039063
104.0 370.520721435547
105.0 192.792495727539
108.0 13.7640409469604
108.9 43.6668167114258
109.9 382.297058105469
111.0 16896.318359375
112.0 1782.94714355469
113.0 5514.06982421875
114.0 691.496887207031
115.0 584.007507324219
116.0 229.986587524414
117.0 245.783554077148
118.0 107.544143676758
122.9 61.1794891357422
123.0 44.9038238525391
123.9 28.7781925201416
125.0 1178.33093261719
125.9 124.313262939453
126.9 421.460083007813
127.9 17.3218879699707
128.0 73.8554916381836
130.0 194.484725952148
131.0 633.514465332031
132.0 226.89111328125
132.0 120.014335632324
133.0 662.202270507813
134.0 30.1710147857666
135.9 75.2038803100586
136.9 244.401138305664
137.9 147.544937133789
139.0 7046.49267578125
139.9 684.144653320313
140.9 2221.130859375
141.9 160.213287353516
144.0 212.894104003906
145.0 822.069946289063
146.0 205.506393432617
148.9 116.562042236328
149.9 110.089874267578
151.0 99.9068374633789
152.0 297.336212158203
152.9 33.6054077148438
153.9 88.362190246582
160.0 306.266235351563
161.0 114.666633605957
161.0 155.305160522461
164.0 15.6704921722412
164.9 122.958351135254
166.0 490.611022949219
167.0 304.885223388672
168.0 911.647644042969
169.0 133.591857910156
170.0 211.968124389648
174.1 27.0106678009033
175.0 14.1758966445923
177.9 83.5936737060547
180.0 505.725372314453
181.0 136.178268432617
182.0 531.4404296875
182.9 74.4065780639648
184.0 112.660835266113
194.0 661.511474609375
195.0 154.384262084961
196.0 656.844055175781
196.9 42.095890045166
197.9 46.888729095459
198.0 50.6354598999023
207.0 23.1211547851563
208.0 203.755950927734
209.0 201.287826538086
209.0 80.9610900878906
210.0 206.773635864258
211.0 126.570915222168
