#"+EI Scan (rt: 1.819-1.865 min, 9 scans) MIX6-8.D  Subtract "
#Point,X(Thompsons),Y(Counts)
41.0 3660.02758789063
42.0 4909.6142578125
43.0 831.439453125
44.0 3258.28442382813
45.0 126.497856140137
50.0 582.412048339844
51.0 1017.77807617188
52.0 367.441284179688
53.0 234.750106811523
54.0 245.514923095703
54.0 161.033172607422
55.0 582.229431152344
56.0 3462.69506835938
57.1 8423.2900390625
58.0 386.330810546875
60.9 20.2153472900391
62.0 371.294250488281
63.0 1590.14672851563
64.0 441.428405761719
65.0 5594.50390625
66.0 370.025512695313
67.0 56.2113494873047
68.0 274.847198486328
69.0 279.021118164063
70.0 4310.6259765625
71.1 1149.17248535156
72.1 98989.546875
73.1 4937.87646484375
74.0 230.259063720703
74.9 118.052597045898
75.0 93.6345367431641
76.0 150.033447265625
77.0 700.375793457031
78.0 210.497955322266
79.0 159.74089050293
79.8 64.3585891723633
80.2 18.8165302276611
80.4 19.3537502288818
86.0 81.9541931152344
87.0 70.7734069824219
89.0 1792.40747070313
90.0 826.122314453125
91.0 9087.671875
92.0 921.075500488281
93.0 137.892776489258
96.0 17.7761535644531
101.9 59.0100860595703
103.0 229.767196655273
104.0 81.3750228881836
105.0 626.055725097656
106.0 37.6032981872559
115.0 468.363159179688
116.0 134.676818847656
117.0 366.398498535156
118.0 248.850830078125
119.0 3833.986328125
120.0 443.811004638672
121.0 262.856811523438
121.9 53.8274040222168
126.9 76.9650955200195
128.0 160.248321533203
128.9 99.4114837646484
129.9 80.5216293334961
131.0 122.563751220703
131.1 29.5242691040039
132.0 270.010314941406
133.0 132.029281616211
134.0 1187.80346679688
135.0 182.785568237305
144.0 185.098709106445
145.0 196.335159301758
146.0 195.671890258789
147.0 814.781433105469
148.0 35.5913848876953
157.9 40.7995338439941
160.0 250.829040527344
161.0 183.221282958984
161.9 42.7422180175781
162.1 1701.36010742188
163.0 199.21891784668
190.9 18.0997924804688
207.0 16.227294921875
208.0 85.8088760375977
