#"+EI Scan (rt: 3.066-3.106 min, 8 scans) MIX6-1.D  Subtract "
#Point,X(Thompsons),Y(Counts)
41.0 1502.267578125
42.0 15927.8076171875
43.0 1995.88916015625
44.1 47171.19140625
45.0 1320.82702636719
50.0 970.827392578125
51.0 1552.60754394531
52.0 405.408782958984
53.0 1781.07055664063
54.0 555.537475585938
55.0 1196.541015625
56.0 5410.2919921875
57.0 938.832824707031
58.0 52.8015098571777
58.1 100.616485595703
59.9 72.1951141357422
61.0 704.105224609375
62.0 3583.55297851563
63.0 10475.892578125
64.0 1569.7373046875
65.0 12625.431640625
66.0 969.815551757813
67.0 118.633483886719
68.0 437.53076171875
68.1 46.7096710205078
69.0 320.55859375
70.1 13980.7392578125
71.1 1818.14855957031
72.1 190139.921875
73.1 9527.04296875
74.0 908.377868652344
74.9 37.2532653808594
75.0 349.402404785156
76.0 375.430297851563
77.0 977.537536621094
78.0 270.305389404297
79.0 616.494567871094
79.9 19.5808620452881
81.0 20.5450210571289
86.9 20.3106517791748
88.0 39.1412467956543
89.0 582.6435546875
90.0 292.655700683594
91.0 5656.150390625
92.0 1030.45251464844
93.0 553.916870117188
94.0 54.411994934082
94.2 34.9948387145996
95.0 74.0096893310547
96.0 12.2421989440918
101.2 23.0024471282959
101.9 164.32585144043
103.0 334.408386230469
104.0 177.272399902344
105.0 261.978302001953
106.0 52.8182830810547
107.0 21.7358283996582
116.9 23.349142074585
117.0 115.318489074707
118.0 262.223266601563
119.0 1656.94287109375
120.0 1093.25756835938
121.0 10547.12890625
122.0 1661.30639648438
123.0 209.388153076172
130.0 42.9808387756348
131.0 139.082733154297
131.8 27.9164600372314
132.0 31.17311668396
133.0 213.168167114258
133.9 140.162612915039
135.0 2338.22998046875
136.0 251.128036499023
144.9 41.4716911315918
146.0 391.687286376953
147.0 620.148376464844
148.0 768.403991699219
149.0 13910.9130859375
150.0 1605.31042480469
150.9 192.023712158203
159.9 64.0960235595703
160.0 47.9480667114258
160.9 24.819845199585
161.0 78.1177062988281
162.0 211.452087402344
162.9 133.444641113281
173.9 38.9258728027344
174.0 40.1929473876953
174.9 42.6542167663574
176.0 728.676574707031
177.0 493.084899902344
178.0 1651.76098632813
179.0 152.713714599609
188.0 114.4765625
190.0 304.999389648438
190.9 42.0533218383789
191.0 70.8989868164063
192.1 19.6221942901611
203.0 156.922149658203
204.0 62.5240821838379
205.0 74.0971908569336
205.9 34.1362800598145
206.0 100.875030517578
207.0 27.7666625976563
208.0 9.87086486816406
219.0 300.116607666016
220.1 21.2699089050293
