#"+EI Scan (rt: 1.842-1.894 min, 10 scans) MIX7-8.D  Subtract "
#Point,X(Thompsons),Y(Counts)
40.0 42.3091278076172
41.0 1034.98742675781
42.0 3085.80639648438
43.0 1832.8017578125
44.0 298.585876464844
50.0 631.744079589844
51.0 1914.90478515625
52.0 763.12841796875
53.0 1071.87854003906
54.0 539.853332519531
55.0 911.842956542969
56.0 22008.443359375
57.0 2750.59204101563
58.1 127302.5390625
59.1 4813.609375
60.0 36.9800300598145
62.0 428.191101074219
63.0 1468.00903320313
64.0 403.865539550781
65.0 1241.67602539063
65.9 114.209426879883
66.0 71.1941604614258
66.7 16.3846626281738
67.0 32.8054885864258
71.0 50.7970085144043
72.9 125.835350036621
73.0 31.4954643249512
74.0 282.778045654297
75.0 395.753753662109
75.9 42.1372299194336
76.0 340.910919189453
77.0 6634.076171875
78.0 2413.42700195313
79.0 4240.03662109375
79.9 43.7287673950195
80.0 263.382141113281
84.9 15.3796644210815
85.0 15.2874345779419
86.0 101.796104431152
86.9 67.3220062255859
87.0 69.9978256225586
89.0 789.181884765625
90.0 185.771560668945
91.0 1689.72387695313
92.0 121.776748657227
92.1 41.9484367370605
95.8 17.169189453125
96.0 46.8861541748047
101.0 55.8562240600586
102.0 744.927062988281
103.0 4076.896484375
104.0 1246.48474121094
105.0 5026.96630859375
106.0 831.416381835938
107.0 194.381988525391
111.0 17.2792224884033
115.0 968.900512695313
116.0 317.652282714844
117.0 598.652587890625
118.0 191.773010253906
119.0 680.506958007813
119.9 19.8322086334229
120.0 90.3845138549805
121.0 15.8458614349365
121.9 89.3424835205078
127.0 140.442947387695
128.0 422.629058837891
128.9 16.6693859100342
129.0 259.223205566406
130.0 197.584320068359
131.0 365.628448486328
132.0 230.246948242188
132.1 107.280967712402
133.0 5992.328125
134.0 741.023193359375
135.0 83.5660400390625
141.0 42.6647071838379
142.0 15.4688749313354
143.0 34.4987869262695
144.0 193.207870483398
145.0 305.190734863281
146.0 404.370178222656
147.0 94.8678970336914
148.1 291.6787109375
157.9 17.7469234466553
158.0 269.675476074219
159.0 77.7208480834961
159.0 86.3491363525391
160.0 334.319763183594
160.9 15.610746383667
161.0 151.858551025391
162.0 15.7499599456787
172.0 78.8987884521484
173.0 16.1385231018066
173.1 57.5359382629395
174.0 465.020416259766
175.0 245.466506958008
176.1 201.652740478516
189.0 185.14501953125
191.0 103.070999145508
208.0 235.188568115234
208.8 16.7929763793945
