#"+EI Scan (rt: 1.842-1.894 min, 10 scans) MIX7-4.D  Subtract "
#Point,X(Thompsons),Y(Counts)
41.0 1002.77349853516
42.0 3176.12255859375
43.0 2031.62963867188
44.0 236.420654296875
45.0 15.4841690063477
50.0 643.36962890625
51.0 2132.33715820313
52.0 782.015808105469
53.0 1088.27075195313
54.0 545.763916015625
55.0 811.146545410156
56.0 21613.515625
57.0 2749.27856445313
58.1 130633.40625
59.1 5050.3818359375
60.0 35.3465957641602
60.9 15.0249280929565
62.0 398.175476074219
63.0 1499.71118164063
64.0 384.654693603516
65.0 1257.7333984375
66.0 167.924011230469
72.9 54.8942337036133
74.0 272.036926269531
75.0 359.709381103516
76.0 390.405700683594
77.0 6725.8369140625
78.0 2564.80053710938
79.0 4193.0498046875
80.0 333.317932128906
85.0 18.6789226531982
86.0 68.9315948486328
86.9 147.762481689453
89.0 760.484680175781
90.0 249.439498901367
91.0 1763.26623535156
92.0 149.09619140625
93.0 18.149356842041
95.8 36.555591583252
96.0 106.68034362793
101.0 61.5175170898438
102.0 755.719909667969
103.0 4202.39453125
104.0 1251.60375976563
105.0 5038.79833984375
106.0 823.312866210938
107.0 221.911254882813
115.0 980.6689453125
116.0 324.531677246094
117.0 576.111267089844
118.0 171.239486694336
119.0 681.221435546875
120.0 127.947494506836
121.9 19.9195251464844
127.0 150.452163696289
128.0 417.900726318359
129.0 288.03173828125
129.9 193.182586669922
130.9 16.3197746276855
131.0 343.788665771484
131.9 16.6852531433105
132.0 310.402496337891
133.0 6425.9169921875
134.0 728.540161132813
135.0 53.9230575561523
141.0 57.3620376586914
143.0 31.3724308013916
144.0 194.944427490234
145.0 349.418823242188
146.0 400.685699462891
147.0 88.2100372314453
148.0 265.620391845703
148.9 17.3359413146973
158.0 280.110534667969
159.0 126.127258300781
160.0 324.958312988281
161.0 171.471069335938
162.0 15.9792680740356
162.1 18.2984771728516
172.0 56.3578910827637
173.0 53.844165802002
173.9 15.2206401824951
174.0 459.970123291016
175.0 125.868675231934
175.1 147.277435302734
175.9 16.1250381469727
176.1 180.603317260742
189.0 186.605575561523
191.0 165.288803100586
207.0 17.654052734375
208.0 45.8301086425781
