#"+EI Scan (rt: 1.958-2.017 min, 11 scans) MIX7-5.D  Subtract "
#Point,X(Thompsons),Y(Counts)
41.0 881.743530273438
42.0 7871.18017578125
43.0 919.810119628906
44.0 6723.26025390625
45.0 392.456512451172
49.0 78.8369674682617
50.0 2310.36694335938
51.0 1476.38110351563
52.0 228.406066894531
53.0 268.426147460938
54.0 703.272888183594
55.0 1621.83032226563
56.0 8308.4462890625
57.0 2974.43212890625
58.0 441.8935546875
60.9 205.836334228516
61.9 29.5174198150635
62.0 165.304763793945
63.0 473.572174072266
64.0 17.4992446899414
65.0 122.008331298828
68.0 40.0233268737793
69.0 13.9111175537109
69.2 37.5199317932129
70.1 5044.93798828125
71.1 1743.06140136719
72.1 124362.1171875
73.1 6439.595703125
74.0 1424.95068359375
75.0 5867.13916015625
76.0 1385.77734375
77.0 1306.58020019531
78.0 332.158233642578
79.0 287.158233642578
83.9 173.806213378906
85.0 756.002380371094
86.0 155.996047973633
86.9 313.270141601563
89.0 368.515655517578
90.0 59.1156349182129
91.0 240.130493164063
96.0 33.6574478149414
96.9 52.7176856994629
97.9 33.7774925231934
99.0 70.9022903442383
101.0 163.03791809082
102.0 239.760406494141
103.0 917.927001953125
104.0 285.193725585938
105.0 639.567565917969
105.9 51.0733184814453
106.0 14.0993566513062
109.9 150.945785522461
111.0 7305.29736328125
112.0 722.063232421875
113.0 2479.67700195313
113.9 251.187606811523
115.0 371.414825439453
116.0 80.8702239990234
117.0 129.53645324707
119.0 119.717277526855
120.0 62.5282211303711
123.0 15.6941471099854
125.0 663.881103515625
125.9 35.0220603942871
126.9 244.558334350586
128.0 66.2673416137695
129.9 64.0146102905273
131.0 183.118347167969
131.9 25.3193740844727
132.0 173.979309082031
133.0 775.197265625
134.0 36.3771629333496
136.9 73.1195831298828
138.0 14.0141563415527
139.0 3772.91015625
139.9 308.647583007813
141.0 1294.06762695313
141.9 75.7990646362305
144.0 67.2868728637695
144.9 66.4682540893555
145.0 297.730621337891
146.0 229.840393066406
148.9 32.5926628112793
151.9 72.5932464599609
154.0 19.2701816558838
159.0 52.514965057373
160.0 510.548736572266
161.0 150.810409545898
165.9 23.1353969573975
166.0 140.955993652344
167.0 151.530639648438
168.0 401.88037109375
169.0 15.504674911499
170.0 46.6655311584473
174.0 773.5888671875
174.9 56.3375473022461
175.0 113.331939697266
180.0 173.439788818359
182.0 108.951805114746
189.1 58.6031646728516
190.9 98.170036315918
194.0 156.124954223633
196.0 198.4599609375
207.0 76.2992553710938
208.0 42.9759521484375
209.0 171.749923706055
209.9 14.3335409164429
210.0 14.4793605804443
