#"+EI Scan (rt: 1.958-2.017 min, 11 scans) MIX7-9.D  Subtract "
#Point,X(Thompsons),Y(Counts)
41.0 905.856811523438
42.0 7801.04736328125
43.0 968.473815917969
44.1 7253.64208984375
45.0 383.383758544922
48.9 79.1511535644531
49.0 15.9441213607788
50.0 2388.31713867188
51.0 1357.98193359375
52.0 255.819030761719
53.0 261.289916992188
54.0 748.915771484375
55.0 1543.71313476563
56.0 8462.3515625
57.0 2968.53442382813
58.0 537.124145507813
60.9 45.0211334228516
60.9 196.760314941406
62.0 176.777267456055
63.0 439.257049560547
64.0 30.3078308105469
65.0 129.690841674805
68.0 69.3645706176758
69.0 29.9364032745361
69.2 13.7912101745605
70.1 5147.55712890625
71.1 1793.29150390625
72.1 124858.71875
73.1 6487.41748046875
74.0 1465.05554199219
75.0 5893.3046875
76.0 1404.54223632813
77.0 1314.04699707031
78.0 246.999328613281
79.0 218.178619384766
83.9 159.898056030273
84.9 773.8408203125
86.0 173.943130493164
86.9 331.453094482422
87.9 13.6844234466553
89.0 384.467376708984
90.0 72.3638076782227
91.0 334.293823242188
95.9 128.930023193359
96.0 57.8877830505371
96.9 33.1471939086914
97.9 14.586841583252
98.9 48.2386932373047
101.0 167.296081542969
101.9 157.568405151367
102.0 84.6669998168945
103.0 917.757019042969
104.0 312.145721435547
105.0 601.617370605469
106.0 71.6963577270508
110.0 162.956558227539
111.0 7259.20654296875
112.0 742.564514160156
113.0 2434.40795898438
113.9 254.8505859375
114.9 51.8049278259277
115.0 344.384613037109
116.0 105.217094421387
117.0 143.484237670898
117.9 31.2662887573242
119.0 151.271591186523
120.0 83.4095001220703
121.9 30.5815448760986
125.0 729.544982910156
126.0 33.6536712646484
126.9 221.331314086914
127.9 33.0113067626953
130.0 81.5301513671875
131.0 160.519226074219
131.0 100.644905090332
131.9 69.4876174926758
132.0 129.478973388672
133.0 581.759399414063
134.0 62.00048828125
136.9 72.0958557128906
137.0 19.3464126586914
138.0 50.0914421081543
139.0 3761.64306640625
139.9 104.440376281738
139.9 227.197174072266
141.0 1224.88159179688
141.8 19.9615173339844
141.9 73.8581771850586
144.0 58.0256118774414
145.0 327.425048828125
146.0 209.548004150391
148.9 14.048620223999
149.9 17.5817623138428
151.9 59.1453742980957
152.0 68.7815475463867
159.0 39.998722076416
160.0 524.677490234375
161.0 81.8334197998047
161.1 108.420555114746
166.0 184.712020874023
167.0 150.990646362305
168.0 402.962493896484
169.0 36.6834144592285
169.9 30.0670795440674
170.0 61.9954223632813
174.0 826.6689453125
174.9 14.3526344299316
175.0 132.077514648438
180.0 178.116348266602
182.0 107.475227355957
189.0 98.1838302612305
194.0 190.606140136719
196.0 185.249298095703
207.0 22.5321044921875
208.0 52.6604309082031
208.9 154.639358520508
210.0 15.8830404281616
