#"+EI Scan (rt: 1.958-2.017 min, 11 scans) MIX7-7.D  Subtract "
#Point,X(Thompsons),Y(Counts)
41.0 864.4375
42.0 7905.2607421875
43.0 984.0927734375
44.0 6864.54248046875
45.0 59.4818000793457
45.0 356.129913330078
49.0 79.9152755737305
50.0 2418.63916015625
51.0 1573.65051269531
52.0 243.990585327148
53.0 266.898498535156
54.0 744.760498046875
55.0 1545.12854003906
56.0 8504.943359375
57.0 3064.74243164063
58.0 507.732299804688
60.9 206.223770141602
62.0 172.692276000977
63.0 479.991485595703
63.9 14.2292146682739
65.0 138.605087280273
68.0 75.7680435180664
69.1 13.8170833587646
70.1 5056.92626953125
71.1 1736.91979980469
72.1 123907.7109375
73.1 6502.61376953125
74.0 1378.52526855469
75.0 5922.45263671875
76.0 1400.09826660156
77.0 1293.16235351563
77.9 87.0854873657227
78.0 261.866027832031
79.0 231.556091308594
83.9 149.480804443359
84.9 765.098999023438
86.0 125.953948974609
86.9 324.250396728516
89.0 404.505889892578
90.0 51.4657745361328
91.0 223.666885375977
93.3 13.9902648925781
95.9 98.2489242553711
96.8 14.2335786819458
97.0 44.1323509216309
97.9 28.8273754119873
98.9 71.6471710205078
101.0 204.872375488281
102.0 233.116012573242
103.0 870.326171875
104.0 317.673919677734
105.0 689.170043945313
106.0 50.602294921875
109.8 13.8015632629395
109.9 137.419448852539
111.0 7255.9345703125
111.9 770.301696777344
113.0 2401.49194335938
113.9 254.263656616211
115.0 410.172637939453
115.9 16.8497085571289
116.0 78.3273391723633
117.0 133.769012451172
119.0 41.4353103637695
120.0 56.4746360778809
121.9 33.1534576416016
123.0 14.9172172546387
125.0 718.788391113281
126.0 28.9116268157959
126.9 240.330307006836
128.0 48.9012908935547
129.9 18.7227096557617
130.0 82.2452697753906
131.0 286.135864257813
132.0 198.708206176758
133.0 588.694702148438
133.9 31.6634349822998
136.9 77.9801712036133
138.0 54.0055160522461
139.0 3783.65551757813
139.9 317.000366210938
140.9 1195.53430175781
141.9 82.1079864501953
144.0 55.624584197998
145.0 171.916091918945
145.1 172.509155273438
146.0 249.874771118164
148.9 16.505973815918
149.9 13.800609588623
150.0 32.2304496765137
152.0 114.064300537109
159.0 21.2286796569824
160.0 532.678771972656
161.0 88.8808517456055
161.1 79.7833709716797
164.9 16.9073295593262
166.0 147.009414672852
166.9 147.540145874023
168.0 420.224639892578
168.9 33.1786193847656
170.0 55.5228843688965
174.0 786.820251464844
175.0 97.2776794433594
175.1 24.363130569458
179.9 170.291488647461
180.9 15.1473112106323
182.0 76.7369613647461
189.0 47.2956581115723
194.0 193.974060058594
195.0 14.2726097106934
196.0 207.526565551758
207.0 86.2310180664063
208.0 67.1997375488281
209.0 167.995620727539
210.0 38.6916351318359
