#"+EI Scan (rt: 3.089-3.130 min, 8 scans) MIX7-6.D  Subtract "
#Point,X(Thompsons),Y(Counts)
41.0 4824.54248046875
42.0 5818.025390625
43.0 2022.89721679688
44.0 269.200256347656
50.0 937.404968261719
51.0 3783.9912109375
52.0 503.531463623047
53.0 1011.4833984375
54.0 2895.4482421875
55.0 7102.0380859375
56.0 2689.6005859375
57.0 856.203125
58.0 61.7047882080078
63.0 285.420806884766
64.1 21.8895435333252
65.0 419.778411865234
66.0 70.1012115478516
67.0 607.44189453125
68.0 1909.26306152344
69.0 6429.10693359375
70.1 3468.17944335938
71.0 425.199157714844
72.0 516.305236816406
72.9 19.8488750457764
74.0 176.456085205078
74.9 22.7634429931641
75.0 180.516632080078
76.0 544.342956542969
77.0 11423.205078125
78.0 1406.44995117188
79.0 494.978546142578
80.0 594.275817871094
81.0 390.085601806641
82.0 965.714660644531
83.0 396.396606445313
84.1 7002.29150390625
84.9 24.0175743103027
85.0 485.924682617188
88.9 97.864013671875
89.0 193.62678527832
90.0 102.342399597168
91.0 1685.50024414063
92.0 205.906616210938
93.0 81.6334762573242
94.0 813.298461914063
95.0 522.63818359375
96.1 8210.8134765625
97.1 17160.6953125
98.1 3183.623046875
99.0 159.646240234375
102.0 225.480895996094
103.0 468.506195068359
104.0 322.127716064453
105.0 8418.7939453125
106.0 802.02392578125
107.0 43.7586898803711
108.0 218.615829467773
109.0 19.589771270752
110.1 1520.96508789063
111.0 211.239486694336
115.0 852.367065429688
116.0 297.0400390625
117.0 397.717041015625
118.0 191.326599121094
119.0 51.1332244873047
119.9 33.9668884277344
120.0 511.792358398438
122.0 535.875915527344
123.1 57.9396858215332
124.1 5606.93017578125
125.1 1069.18310546875
126.1 143849.40625
127.1 13348.4091796875
128.0 976.392456054688
129.0 270.860870361328
130.0 234.2783203125
131.0 401.343566894531
132.0 208.895645141602
133.0 750.740478515625
134.0 415.489776611328
141.0 106.699508666992
143.0 107.132514953613
144.0 75.77099609375
144.1 35.8101043701172
145.0 190.112228393555
146.0 196.65641784668
158.0 102.529640197754
159.0 139.819244384766
159.1 26.9258499145508
160.1 961.456787109375
161.0 127.790946960449
170.0 64.375602722168
172.0 62.8646469116211
173.0 21.4129123687744
186.0 203.641387939453
188.1 918.455749511719
189.1 668.93017578125
200.0 144.26774597168
208.9 10.8836345672607
229.1 139.719879150391
230.0 72.979736328125
