#"+EI Scan (rt: 3.725-3.771 min, 9 scans) MIX7-6.D  Subtract "
#Point,X(Thompsons),Y(Counts)
41.0 2394.91748046875
42.0 1737.37890625
43.0 883.944458007813
44.0 152.442993164063
49.9 16.931131362915
50.0 276.987365722656
51.0 1216.94213867188
52.0 129.394744873047
53.0 305.777954101563
54.0 963.800659179688
55.0 1789.81518554688
56.0 1009.82574462891
57.0 253.469268798828
64.9 116.114906311035
65.0 20.5876483917236
67.0 257.298828125
68.0 664.518310546875
69.0 1904.16650390625
70.1 1042.6396484375
71.0 137.390243530273
72.0 68.5037078857422
76.0 145.357315063477
77.0 3804.6474609375
78.0 479.822540283203
79.0 119.00203704834
80.0 256.126922607422
81.0 138.543029785156
82.0 311.561401367188
83.0 193.740524291992
84.1 2176.71826171875
85.0 173.966690063477
88.9 41.4517021179199
91.0 681.594360351563
94.0 300.068450927734
95.0 182.589080810547
96.0 2089.57446289063
97.0 1637.63720703125
98.1 973.947143554688
102.1 33.9363250732422
103.0 105.595977783203
104.0 110.625068664551
105.0 2862.63110351563
106.0 287.644653320313
108.0 71.2486953735352
110.0 995.985900878906
111.0 104.396064758301
112.0 36.4970169067383
115.0 271.829925537109
116.0 24.3845729827881
116.9 32.0556182861328
117.0 153.078277587891
120.0 450.970336914063
122.0 70.6982192993164
124.0 20.1573829650879
128.0 102.006523132324
129.0 42.3697662353516
130.0 38.0003471374512
131.0 144.034729003906
132.0 21.327449798584
133.0 205.025695800781
136.0 297.727142333984
138.1 1882.74609375
139.0 68.0495758056641
139.2 292.848785400391
140.1 58416.88671875
141.1 6137.44921875
142.1 286.653472900391
145.0 23.8038101196289
160.0 439.262512207031
186.1 20.451789855957
188.0 25.9809303283691
188.1 365.188995361328
189.0 17.3623638153076
200.1 58.8014869689941
207.0 17.8545532226563
208.9 17.621940612793
214.0 18.5496883392334
