#"+EI Scan (rt: 1.987-2.046 min, 11 scans) MIX8-3.D  Subtract "
#Point,X(Thompsons),Y(Counts)
41.0 664.981811523438
42.0 1965.55969238281
43.0 1376.70263671875
44.0 85.9546508789063
50.0 516.065612792969
51.0 1136.63720703125
52.0 329.813018798828
53.0 369.948425292969
54.0 228.160415649414
55.0 561.739807128906
56.0 7755.4892578125
57.0 1405.67590332031
58.1 72321.8828125
59.1 2748.90258789063
61.9 213.0107421875
63.0 803.937683105469
64.0 223.893737792969
65.0 534.971618652344
65.9 29.385082244873
71.0 13.8464450836182
73.0 63.9344024658203
74.0 174.974014282227
74.0 41.565185546875
75.0 285.929351806641
76.0 319.958190917969
76.1 15.9826688766479
77.0 2934.18481445313
78.0 823.852172851563
79.0 2078.10571289063
80.0 113.7470703125
84.0 58.8249282836914
86.0 95.1921615600586
86.9 32.381591796875
89.0 1295.15808105469
90.0 1058.08935546875
91.0 927.486999511719
92.0 63.665454864502
96.0 87.536735534668
102.0 297.733489990234
103.0 1725.22900390625
104.0 566.169921875
105.0 1356.41394042969
106.0 73.0024261474609
106.0 94.839111328125
115.0 356.734649658203
116.0 77.5696105957031
117.0 264.276733398438
118.0 125.007568359375
119.0 458.034637451172
120.0 14.7381143569946
121.0 89.921142578125
122.0 46.0083389282227
128.0 89.3125076293945
129.0 33.7965850830078
130.0 31.7679443359375
131.0 143.462951660156
131.9 44.4535484313965
132.0 74.9529724121094
132.1 22.3251781463623
133.0 3076.21264648438
134.0 391.224884033203
135.0 17.4855766296387
138.9 28.3555126190186
144.0 49.5768280029297
146.0 94.579460144043
147.0 205.192077636719
148.0 440.971862792969
149.0 408.528686523438
149.9 65.0453948974609
160.0 302.25439453125
161.0 82.9961700439453
161.9 14.2576513290405
162.0 34.1732139587402
172.0 63.4607276916504
176.0 104.116409301758
177.0 14.094747543335
190.9 33.8624114990234
191.9 33.6261444091797
207.0 43.392578125
