#"+EI Scan (rt: 2.055-2.066 min, 3 scans) GC-CONFIRM-5.D  Subtract "
#Point,X(Thompsons),Y(Counts)
40.1 1627.90075683594
41.1 32488.728515625
42.1 23451.515625
43.1 10461.82421875
44.0 1458.05004882813
45.0 15.4356689453125
49.0 173.453903198242
50.0 5050.71728515625
51.0 20985.849609375
52.0 2448.95727539063
53.0 3545.20336914063
54.0 12766.0068359375
55.1 34147.55078125
56.1 9111.5673828125
57.0 959.332702636719
58.0 8008.42724609375
59.0 325.808197021484
62.0 370.216949462891
63.0 1091.26293945313
64.0 240.60823059082
65.0 1517.29089355469
66.0 415.680084228516
67.0 1680.76696777344
68.1 7887.09765625
69.1 9154.3603515625
70.1 37183.99609375
71.1 2538.68188476563
72.0 168.372756958008
73.0 145.604690551758
74.0 1188.32153320313
75.0 1293.21020507813
76.0 2922.97534179688
77.0 57070.98046875
78.0 6163.18212890625
79.0 1234.28173828125
80.0 1830.52282714844
81.1 885.451965332031
82.0 4061.01953125
83.0 1786.94189453125
84.1 3111.97265625
85.0 223.55632019043
86.1 53.2101898193359
87.0 132.370315551758
89.0 1058.88256835938
90.0 538.359191894531
91.0 6024.49560546875
92.0 632.204528808594
93.0 624.068420410156
94.0 1978.84191894531
95.0 1126.638671875
96.1 16340.7744140625
97.1 10961.7919921875
98.0 811.615783691406
100.9 52.050479888916
102.0 849.358947753906
103.0 1277.74475097656
104.0 1470.06884765625
105.0 28979.095703125
106.0 2776.70239257813
107.0 227.145263671875
108.1 2264.685546875
109.1 487.398773193359
110.1 27522.681640625
111.1 5737.21484375
112.1 747163.375
113.1 61790.609375
114.1 2294.95166015625
115.0 2067.61938476563
116.0 785.025573730469
117.0 1178.67651367188
118.0 593.555358886719
119.0 151.355728149414
120.0 431.342163085938
127.0 537.426940917969
128.0 979.369445800781
129.0 641.821838378906
130.0 993.501953125
131.0 1399.48583984375
132.0 486.460113525391
133.0 764.700744628906
134.1 75.2830429077148
141.0 56.4429779052734
142.0 64.0678939819336
143.0 209.548767089844
144.0 236.768783569336
144.9 122.851112365723
145.1 351.857818603516
146.0 748.016906738281
147.0 577.268432617188
148.0 779.229064941406
153.1 77.8531723022461
154.0 63.6777801513672
156.0 71.7148361206055
158.0 537.114624023438
159.0 467.407012939453
160.1 1080.36535644531
161.0 103.927116394043
167.0 144.433303833008
167.9 181.289596557617
170.0 324.326263427734
172.1 281.606719970703
173.0 201.98811340332
174.0 60.2698822021484
184.0 92.3285751342773
186.1 1161.95642089844
187.1 333.924285888672
188.1 3488.23461914063
189.0 485.063385009766
199.1 56.1960487365723
200.1 253.669021606445
202.1 113.533508300781
207.0 37.0096664428711
213.0 197.311645507813
214.1 174.103927612305
215.1 782.27490234375
216.0 98.3168258666992
216.1 423.357025146484
217.1 371.212249755859
