#"+EI Scan (rt: 3.503-3.544 min, 8 scans) EUTYLONE-6.D  Subtract "
#Point,X(Thompsons),Y(Counts)
41.0 14670.4482421875
42.0 3003.015625
43.0 2662.91064453125
44.0 2980.25830078125
45.0 183.814147949219
50.0 812.089660644531
51.0 1439.8515625
52.0 464.777862548828
53.0 1532.08984375
54.0 1009.44586181641
55.0 1249.28491210938
56.0 10849.90625
57.0 1046.68017578125
58.1 22128.96875
59.0 817.61083984375
60.0 43.6646423339844
61.0 463.117004394531
62.0 2766.9970703125
63.0 9048.19921875
64.0 1413.63525390625
65.0 12393.1025390625
66.0 976.156982421875
67.0 344.885589599609
68.0 609.14208984375
69.0 576.181457519531
70.1 3875.89697265625
70.9 28.7933387756348
71.0 908.249450683594
72.1 20.1835708618164
74.0 551.714294433594
75.0 320.761535644531
76.0 421.300231933594
77.0 1301.53369140625
78.0 332.947387695313
79.0 687.058959960938
80.0 142.998046875
82.0 177.411590576172
83.0 20.3198070526123
83.1 48.2551078796387
84.1 6315.068359375
85.1 1578.08422851563
86.1 240132.421875
87.1 14555.4619140625
88.1 446.005493164063
89.0 490.060546875
90.0 286.991668701172
91.0 4246.79248046875
92.0 877.252624511719
93.0 748.110229492188
94.3 120.659942626953
94.5 66.9642562866211
94.7 40.0922622680664
94.8 41.6187133789063
95.0 28.2771549224854
95.5 22.9444313049316
101.9 31.7206649780273
102.0 132.099411010742
103.0 632.528625488281
104.0 304.692932128906
105.0 480.249603271484
106.0 65.1204833984375
115.0 172.617660522461
115.1 47.7969131469727
115.9 50.4231872558594
117.0 193.806900024414
118.0 184.829895019531
119.0 1117.76232910156
120.0 979.799926757813
121.0 10880.677734375
122.0 1402.07775878906
123.0 204.521667480469
130.0 134.604827880859
131.0 288.3447265625
132.0 263.983581542969
133.0 283.240570068359
134.0 107.04029083252
135.0 2002.97009277344
136.0 178.718292236328
144.0 20.9043254852295
144.9 162.088623046875
146.0 190.346557617188
147.0 595.276000976563
148.0 1028.44885253906
149.0 15761.5615234375
150.0 1700.90234375
151.0 169.345153808594
158.0 46.5695648193359
158.9 19.1907691955566
159.0 19.0286903381348
160.0 345.222137451172
161.0 286.515106201172
162.0 301.252288818359
163.0 183.792587280273
164.0 154.324935913086
174.0 153.171752929688
175.0 214.723114013672
176.0 1222.02331542969
177.0 650.492065429688
178.1 2184.7197265625
179.0 166.279327392578
179.1 111.028244018555
188.0 53.5418167114258
189.0 50.0556259155273
190.0 369.203002929688
191.0 145.303695678711
192.0 540.981811523438
202.0 230.315444946289
204.0 91.8796157836914
205.0 41.407829284668
206.1 1299.35034179688
207.0 185.319625854492
217.0 110.474349975586
219.0 42.2834968566895
