#"+EI Scan (rt: 16.761-16.818 min, 10 scans) Iso2-6.D  Subtract "
#Point,X(Thompsons),Y(Counts)
40.1 1636.66174316406
41.1 28298.873046875
42.1 36840.01171875
43.1 5605.90234375
44.1 18880.224609375
45.0 495.164611816406
49.0 55.7451057434082
50.0 930.958679199219
51.0 3825.435546875
52.0 1207.31945800781
53.0 2061.10815429688
54.0 2713.994140625
55.1 8038.69482421875
56.1 6719.76220703125
57.0 4086.40991210938
58.0 610.582641601563
58.1 204.622589111328
60.9 132.545074462891
62.0 380.312774658203
63.0 1315.2607421875
64.0 766.76513671875
65.0 6355.32421875
66.0 1789.87780761719
67.0 7146.50146484375
68.1 9012.0107421875
69.0 139127.828125
70.1 20018.22265625
71.0 1842.60510253906
72.0 232.859024047852
72.2 52.3715019226074
74.0 278.95947265625
75.0 293.632080078125
76.1 1385.33312988281
77.0 28782.064453125
78.0 5089.90625
79.0 16080.3623046875
80.0 3825.2041015625
81.0 1478.4658203125
82.1 8648.626953125
83.0 2567.54077148438
84.1 4696.52001953125
85.0 495.712432861328
85.9 67.6324920654297
86.1 53.5817337036133
86.3 30.5542507171631
86.9 45.1892013549805
87.0 19.063175201416
87.9 62.1819725036621
88.1 33.4274215698242
89.0 1609.68798828125
90.0 1658.67761230469
91.0 21886.9765625
92.0 4167.89697265625
93.0 15313.5029296875
94.0 10806.568359375
95.1 6138.3984375
96.1 62203.109375
97.1 6699.2841796875
98.1 6978.56103515625
99.0 473.179565429688
99.1 115.491859436035
100.0 903.993408203125
100.9 169.300521850586
101.1 183.490264892578
102.0 1500.853515625
103.0 15585.01171875
104.0 23682.103515625
105.0 82025.75
106.1 12348.3408203125
107.0 1437.45153808594
108.0 841.2802734375
109.0 219.3564453125
110.0 713.127075195313
111.0 194.015350341797
111.1 162.39111328125
111.9 56.9626235961914
112.0 1232.35534667969
113.0 257.938201904297
113.9 41.1949729919434
114.0 211.910797119141
114.1 44.9873313903809
114.2 44.3271102905273
115.0 3648.8330078125
116.0 2076.14624023438
117.0 10507.5361328125
118.0 19696.3515625
119.0 6320.97412109375
120.0 3881.40161132813
121.0 882.42919921875
121.9 49.2322692871094
122.0 199.494094848633
122.2 27.6138706207275
122.9 139.586410522461
124.0 373.012359619141
124.9 59.5895233154297
125.8 28.335765838623
125.9 76.3376159667969
126.1 63.1666069030762
126.9 389.840026855469
127.9 11.644401550293
128.0 1910.60705566406
129.0 2264.30249023438
130.0 23902.892578125
131.1 16088.6875
132.1 35069.2578125
133.0 5336.1728515625
134.1 5980.37646484375
135.0 586.87158203125
136.1 572.130981445313
138.0 63.45849609375
139.0 3421.33471679688
140.0 556.378967285156
141.0 256.39892578125
142.0 884.252380371094
143.1 3195.7119140625
144.1 13347.2509765625
145.1 7607.17724609375
146.1 341734.90625
147.1 39756.18359375
148.1 6861.1904296875
149.0 889.189880371094
150.0 162.755081176758
150.1 116.417778015137
151.0 102.305419921875
152.0 1194.52124023438
153.0 207.056457519531
154.0 396.424957275391
155.0 136.57666015625
156.0 1632.47448730469
157.0 1325.84057617188
158.1 67701.6171875
159.0 9549.59375
160.1 18533.810546875
161.0 8338.1318359375
162.1 4656.4794921875
163.0 391.009521484375
163.9 116.630737304688
165.0 147.406066894531
165.9 73.4563903808594
166.0 24.4290866851807
166.9 193.2529296875
168.0 291.470703125
168.1 229.181503295898
168.9 251.635116577148
169.1 102.211044311523
170.0 1164.57971191406
170.9 351.5439453125
172.1 4632.8564453125
173.1 2239.66943359375
173.8 20.7502002716064
174.0 139.094909667969
174.1 762.072448730469
175.0 475.772186279297
175.1 290.333312988281
176.0 112.429046630859
176.1 49.1315689086914
176.9 11.1106719970703
177.8 13.77223777771
177.9 53.5161170959473
178.9 139.203094482422
179.9 28.0453567504883
180.0 242.870178222656
180.9 117.223388671875
182.0 1032.56555175781
183.0 564.310546875
184.1 8783.6435546875
185.1 7265.578125
186.1 21846.896484375
187.1 17381.015625
188.2 16378.8779296875
189.1 456042.84375
190.1 64559.69140625
191.1 6374.1650390625
192.0 241.809143066406
194.0 96.9699478149414
194.2 59.886302947998
196.0 234.546249389648
197.0 191.6796875
198.0 992.701843261719
198.1 69.0408172607422
198.9 164.943603515625
200.0 622.953247070313
200.1 264.246032714844
200.9 90.250244140625
202.0 487.803588867188
202.9 83.4215393066406
203.9 128.118957519531
204.0 55.1365585327148
204.9 9.2353515625
206.0 57.1339836120605
206.1 23.8479766845703
209.0 7.6552734375
210.1 243.265502929688
212.0 675.713134765625
213.0 888.578125
214.1 98571.7890625
215.0 12720.34765625
216.0 952.6884765625
218.1 191.859817504883
222.0 102.115753173828
222.1 31.3688411712646
224.0 89.5294647216797
225.0 72.8121185302734
226.0 256.940155029297
226.2 24.9227523803711
227.0 70.02490234375
228.1 3540.72265625
229.0 1163.37072753906
230.0 215.941436767578
231.0 437.885284423828
239.0 164.1015625
240.0 119.250122070313
240.1 71.1322174072266
241.0 611.17822265625
242.1 175.28759765625
242.9 84.1558837890625
243.9 22.6157855987549
244.0 30.4486045837402
244.1 40.471866607666
244.2 16.4145526885986
244.9 18.9021301269531
245.9 25.1198692321777
246.0 9.83142566680908
247.0 193.262649536133
248.0 17.5094585418701
248.9 140.519470214844
249.9 18.5468158721924
250.0 34.559757232666
250.1 42.3502578735352
251.0 390.947601318359
251.9 94.5687789916992
252.1 20.6462745666504
252.3 31.7921257019043
252.9 11.3767547607422
254.1 79.1153411865234
255.1 322.719177246094
255.2 2050.52685546875
257.2 792635.6875
258.1 148203.1875
259.2 15309.0673828125
260.1 1287.14770507813
260.7 44.0948257446289
261.0 54.287036895752
261.9 34.1711921691895
262.0 53.205394744873
262.8 58.3153038024902
263.1 32.5462837219238
264.1 55.9255561828613
264.7 45.7331657409668
265.0 43.1945190429688
265.0 45.2291984558105
266.8 39.1226577758789
268.9 44.2449951171875
269.9 63.0059280395508
270.9 37.4461669921875
271.9 65.5818176269531
274.0 205.224807739258
274.9 52.06689453125
275.9 168.792877197266
276.9 225.242919921875
278.0 338.018798828125
279.1 9670.3916015625
280.0 44.3924522399902
280.2 2155.70654296875
281.0 174.882019042969
282.0 81.1822204589844
283.0 169.514282226563
283.8 18.9663219451904
284.0 2.57900619506836
286.0 16.8128662109375
287.0 53.7722930908203
287.8 18.3773784637451
287.9 10.5109329223633
288.1 33.5707855224609
291.0 9.8427734375
291.9 62.0566329956055
295.9 81.7790679931641
296.9 4.46484375
297.8 64.5366973876953
298.8 159.720611572266
299.9 17.5870819091797
300.0 41.7224960327148
300.9 19.0944442749023
301.0 13.3949584960938
301.9 32.3251037597656
302.0 18.8637599945068
302.9 84.2732849121094
303.1 20.5986862182617
304.9 24.6809577941895
305.0 71.2144165039063
307.0 213.492874145508
307.2 58.8958625793457
307.9 21.2175025939941
308.1 106.951614379883
308.9 65.2987365722656
310.9 85.1944274902344
312.1 13.1504650115967
312.9 34.9299583435059
313.1 16.280725479126
314.2 15.9578247070313
315.0 41.5014266967773
315.9 54.011833190918
316.0 43.0291748046875
316.8 21.2511520385742
317.0 36.9984130859375
326.8 31.3587074279785
327.0 12.4377899169922
329.0 126.442184448242
329.1 60.5408325195313
330.1 258.458343505859
330.4 47.6409225463867
330.5 23.7744770050049
330.9 46.844123840332
331.1 79.9859771728516
331.4 16.9626045227051
332.0 73.5970840454102
332.1 24.5478954315186
332.5 17.8860187530518
332.7 22.0193576812744
333.0 90.9851989746094
333.1 81.8443145751953
334.8 37.4827423095703
335.0 19.5318393707275
337.0 17.4055500030518
341.0 1.04125595092773
345.0 118.745468139648
345.2 27.407434463501
346.2 3034.49438476563
347.0 154.239715576172
347.2 1198.50158691406
348.0 52.673583984375
348.2 271.259918212891
349.1 715.180236816406
350.1 147.664413452148
350.7 47.6620292663574
350.8 17.1763229370117
352.7 97.5277709960938
354.9 12.2662811279297
358.9 29.0806331634521
359.1 13.0788869857788
362.9 15.7991170883179
363.0 1.19532585144043
366.7 21.9481048583984
366.9 33.2562522888184
368.8 24.5952033996582
370.8 29.32763671875
371.1 20.1575241088867
