#"+EI Scan (rt: 4.711-4.736 min, 5 scans) Iso4-8.D  Subtract "
#Point,X(Thompsons),Y(Counts)
40.0 2651.36889648438
41.1 18460.962890625
42.1 43207.43359375
43.1 19769.7109375
44.1 4395.82470703125
45.1 260.202941894531
45.8 43.0455169677734
46.3 50.3032913208008
48.9 45.4092178344727
49.1 162.222305297852
50.0 6793.64306640625
51.0 20244.59765625
52.0 5955.55615234375
53.0 2665.73364257813
54.1 3891.30810546875
55.1 2957.12182617188
56.1 72295.78125
57.2 11811.8203125
58.1 1530377.125
59.1 61082.4453125
60.0 1128.12927246094
61.0 768.110717773438
62.0 4234.7587890625
63.0 16703.830078125
64.1 5081.98681640625
65.0 61200.61328125
66.0 313.459991455078
66.3 5548.82763671875
66.8 6926.56396484375
67.9 239.356491088867
67.9 473.529693603516
69.0 39.8610000610352
69.1 138.123718261719
70.1 2698.59887695313
71.1 1011.99725341797
71.3 139.160583496094
72.0 35.5727577209473
72.3 427.282623291016
72.5 103.493690490723
72.8 303.185668945313
72.9 95.530387878418
73.1 156.073547363281
73.3 139.195602416992
74.0 2816.74267578125
75.0 3156.03100585938
76.0 3747.23559570313
77.0 27026.4296875
78.0 12268.298828125
79.0 6136.6005859375
80.0 1039.56958007813
81.0 227.976989746094
81.9 83.8347549438477
84.9 317.219543457031
86.0 985.3212890625
87.0 1270.99206542969
87.9 32.9407424926758
88.0 625.783996582031
88.1 279.136749267578
89.0 20405.599609375
90.1 10406.4970703125
91.0 175865.25
92.0 17033.359375
93.1 4025.42333984375
94.0 350.197509765625
94.1 365.087005615234
94.9 39.1344909667969
96.1 38.8336448669434
97.9 88.506103515625
98.0 132.113433837891
98.8 71.0026702880859
100.1 30.6572818756104
101.0 733.472045898438
102.0 5064.7314453125
103.0 13161.107421875
104.0 9910.7705078125
105.0 9877.587890625
106.0 2475.3388671875
107.0 761.826965332031
108.0 32.0278358459473
108.1 106.444763183594
108.9 24.1444320678711
109.0 58.2667007446289
113.0 465.072265625
114.1 530.339904785156
115.0 33838.2578125
116.0 10538.1220703125
117.1 37101.41796875
118.0 20827.515625
119.1 35066.97265625
120.1 3743.04638671875
121.0 135.364410400391
121.1 84.1093139648438
127.0 71.9487762451172
127.2 50.5348854064941
128.0 559.701843261719
128.9 94.0241546630859
129.0 451.4921875
129.1 207.987380981445
130.1 6930.4296875
131.1 3359.16918945313
132.1 19204.103515625
133.1 15198.544921875
134.1 59908.27734375
135.1 6403.25830078125
136.1 248.69921875
137.0 104.111083984375
138.0 129.498764038086
140.9 30.4878349304199
142.0 77.2167205810547
143.0 160.772125244141
143.1 103.054969787598
144.0 1930.53295898438
145.1 405.340179443359
146.1 4642.734375
147.0 106.906112670898
147.1 1998.79370117188
148.1 19809.46875
149.1 2600.88623046875
150.1 1855.59533691406
151.0 88.6508941650391
151.1 129.648254394531
155.0 68.6630020141602
158.9 100.374450683594
166.8 34.4398994445801
206.9 62.6959228515625
210.8 47.016170501709
215.0 223.071166992188
216.0 60.8792533874512
217.0 122.803665161133
218.9 77.8852691650391
232.9 125.130065917969
237.0 97.9425659179688
238.0 38.0095252990723
238.9 52.9609603881836
280.9 39.704402923584
288.9 82.5254669189453
292.8 24.420654296875
293.0 50.4161491394043
