#"+EI Scan (rt: 1.589-1.658 min, 13 scans) R6M1.D  Subtract "
#Point,X(Thompsons),Y(Counts)
40.0762 380.303527832031
41.0676 7768.7021484375
42.0738 831.47998046875
43.0700 8268.69921875
44.0110 493.726318359375
44.9489 280.521728515625
46.0700 28.8912372589111
47.0000 450.729705810547
48.8800 48.7876434326172
48.9832 43.9415740966797
49.8800 58.9676132202148
50.0900 85.076530456543
51.0104 563.962707519531
52.0027 236.114212036133
52.1400 121.914833068848
53.0500 2930.00610351563
54.0534 684.835266113281
55.0567 4194.50634765625
56.1200 614.606811523438
58.0760 302.43994140625
59.0400 5719.58984375
59.9300 142.277130126953
60.7900 35.3947372436523
61.1000 41.0175323486328
61.9387 24.5274200439453
62.0812 68.1382827758789
62.9096 145.421813964844
63.0100 221.673767089844
63.9788 338.33251953125
65.0129 790.322998046875
65.0600 1776.80102539063
66.0619 998.815673828125
67.0434 5214.40283203125
68.0618 1620.03125
69.0462 2250.029296875
70.1500 306.417266845703
71.9400 174.564712524414
72.0425 2079.50122070313
73.0351 170.90380859375
74.0842 125.382202148438
75.0125 83.4942626953125
75.8919 37.1513595581055
76.0661 417.355590820313
77.0300 8132.1796875
78.0300 2062.3271484375
79.0336 5366.1455078125
80.0100 1230.91796875
80.0782 464.219421386719
81.0200 2483.94921875
81.9759 285.562561035156
82.0662 446.630737304688
83.0653 37.8056030273438
83.8900 98.2194442749023
84.0024 83.204345703125
86.0464 435.142639160156
86.8600 47.4728240966797
87.1200 210.311950683594
87.7800 57.164306640625
87.9563 236.27685546875
88.0643 101.907043457031
89.0030 970.982666015625
90.0000 631.774780273438
90.0828 59.6729888916016
91.0408 11123.1962890625
92.0537 1921.37609863281
93.0540 4391.359375
93.9100 106.037483215332
94.0200 581.007202148438
94.1112 308.679443359375
95.0369 1423.10925292969
96.0174 344.906616210938
98.9300 146.976531982422
99.7300 46.4623832702637
99.9989 42.5191040039063
100.1372 331.340545654297
100.3100 17.3422889709473
100.4300 46.0850982666016
100.7500 309.394989013672
101.9802 1019.12731933594
102.1375 13.8499603271484
103.0307 2928.44653320313
103.8729 20.82080078125
104.0117 784.064331054688
104.1221 64.4400253295898
105.0493 6227.9873046875
106.0000 1000.96099853516
106.0912 490.506011962891
107.0586 8745.5595703125
108.0470 2045.24377441406
109.0177 2274.8251953125
109.9600 522.624389648438
111.0538 253.054565429688
111.9200 121.902572631836
112.9514 423.589630126953
113.9400 181.757995605469
114.0200 553.188842773438
114.2300 144.223663330078
115.0288 6871.24560546875
115.9200 58.431095123291
116.0180 1576.96435546875
117.0221 2673.32788085938
117.9905 432.565185546875
118.0922 391.712036132813
119.0575 8508.564453125
120.0606 1956.02490234375
120.2144 7.49666786193848
121.0755 5539.859375
121.9799 298.985107421875
122.0687 2586.6884765625
123.0145 4963.93212890625
124.0473 2174.7109375
124.9279 128.049072265625
125.0104 54.2828979492188
126.0148 414.682861328125
127.0300 2426.48681640625
128.0533 6228.38916015625
129.0300 3792.3623046875
130.0155 984.922424316406
131.0290 3595.4541015625
131.9642 423.212158203125
132.0500 607.971557617188
133.0063 2668.30810546875
134.0634 4517.55419921875
135.0406 2441.12475585938
135.9114 27.2980880737305
136.0358 2283.4404296875
137.0100 5111.40625
138.0157 1129.73608398438
139.0056 616.00146484375
139.9000 130.160797119141
140.0317 195.452575683594
141.0102 2733.28295898438
141.9648 415.225524902344
142.0609 1157.88623046875
142.9914 125.667083740234
143.0643 1238.08312988281
143.9541 326.860900878906
144.0411 1283.90148925781
144.9908 1107.58862304688
145.0500 2205.69702148438
145.7418 22.106481552124
146.0163 775.671203613281
146.1200 335.260467529297
147.0140 4874.626953125
148.0404 1601.89343261719
149.0334 2491.28295898438
149.9000 125.731330871582
150.0358 1798.91821289063
150.8900 138.008499145508
151.0062 697.895385742188
151.9137 218.741546630859
152.0500 2704.23266601563
153.0338 2416.63671875
154.0221 1256.95336914063
155.0161 2516.4375
156.0200 699.15673828125
157.0133 2999.30346679688
157.8100 38.4221267700195
158.0470 1277.23364257813
158.9756 3140.5546875
160.0068 2557.90161132813
161.0169 4171.29052734375
161.7500 64.025146484375
161.9567 280.843994140625
162.0685 935.967163085938
163.0400 1906.89038085938
163.9702 381.711853027344
164.0533 375.864929199219
164.1846 13.991340637207
165.0392 4752.40771484375
166.0618 1518.33959960938
166.9000 321.463043212891
166.9983 720.714599609375
168.0211 1002.9111328125
168.1500 98.2199249267578
168.9088 71.2521438598633
169.0325 1131.53771972656
169.4900 17.9508857727051
169.9900 495.273132324219
170.0916 355.947143554688
170.2500 40.4558944702148
170.9837 1273.85717773438
171.9330 220.44645690918
172.0686 652.716796875
172.9035 117.744201660156
173.0296 3396.11499023438
173.1000 941.911071777344
174.0499 15762.22265625
175.0401 6351.13232421875
176.0467 1850.92724609375
176.9901 1094.431640625
178.0712 1912.39306640625
179.0461 1185.51000976563
179.1700 76.6316375732422
179.9189 112.655700683594
180.0600 410.930450439453
181.0408 2980.35107421875
181.9724 416.850860595703
182.0671 788.768493652344
183.0344 3204.10229492188
183.9058 51.9205322265625
184.0281 699.505737304688
184.1400 185.642074584961
185.0100 2477.322265625
185.9813 1134.39892578125
186.1100 239.87956237793
187.0567 6483.310546875
188.0500 3632.12939453125
189.0477 6598.5234375
190.0501 2882.66870117188
190.1500 523.840454101563
190.9878 421.061462402344
191.0800 1040.66137695313
192.0691 624.434265136719
193.0997 19338.787109375
194.0890 3245.22412109375
194.9931 1670.58215332031
195.8900 290.455902099609
196.0106 417.264953613281
196.9764 1778.34619140625
197.9664 476.980712890625
198.1100 389.234527587891
199.0200 3410.42358398438
199.9200 276.716186523438
200.0292 1385.93811035156
200.1600 44.1441040039063
201.0400 10244.9365234375
202.0505 2971.34204101563
202.8621 32.2257690429688
203.0432 1735.5439453125
203.8491 5.82522583007813
204.0100 465.190979003906
204.1100 174.429748535156
204.9458 155.734527587891
205.0700 172.673416137695
205.6600 15.801661491394
206.0400 271.386932373047
206.1600 158.06787109375
207.0474 1674.87878417969
207.9400 147.434478759766
208.0617 259.235046386719
208.8700 38.0114860534668
209.0059 389.778106689453
209.1300 102.626510620117
209.8999 46.4499893188477
210.0394 389.643341064453
211.0012 1674.17236328125
211.9917 231.76708984375
212.0801 338.990570068359
213.0411 1758.94958496094
214.0082 767.924072265625
214.1000 1598.57495117188
214.9909 4075.58203125
215.9871 1158.24194335938
216.9968 1733.9814453125
217.9748 337.426513671875
218.9552 476.21728515625
219.7900 109.810997009277
220.7500 66.8686828613281
221.0286 357.720794677734
221.9400 107.942924499512
222.9800 984.637451171875
223.8989 250.657302856445
224.0400 176.216781616211
224.2800 34.140007019043
224.8422 111.447525024414
224.9890 241.817687988281
225.0900 41.4741973876953
225.7200 26.993803024292
225.9202 101.630996704102
226.0830 190.225494384766
226.1949 159.369934082031
226.9838 279.170776367188
227.0800 569.839782714844
227.9800 490.059234619141
228.0925 265.603179931641
229.0700 3163.74975585938
229.9732 45.4628448486328
230.1297 764.58984375
231.1300 93598.921875
232.1302 15973.4853515625
233.0197 4598.5439453125
234.0112 518.1650390625
235.0300 379.997283935547
235.8700 158.364974975586
235.9804 2.16005706787109
236.9700 1158.2529296875
237.9600 299.059326171875
239.0400 397.301452636719
239.7800 14.8392782211304
240.0500 345.266296386719
240.1751 112.154312133789
240.9778 307.430786132813
241.1200 86.6973495483398
241.9267 40.4123229980469
242.0715 437.866333007813
242.1500 108.974250793457
243.1200 4407.84619140625
243.9156 2.67661285400391
244.1100 1173.70751953125
245.1300 6013.0185546875
246.1400 10687.6826171875
247.1179 1960.28869628906
247.9800 28.1674194335938
248.1100 185.058166503906
248.2400 25.6739101409912
248.9587 235.665710449219
249.0925 148.62239074707
249.2800 27.0816268920898
249.7900 62.1518096923828
249.9700 42.3502960205078
250.8705 117.862922668457
251.0546 41.1809387207031
251.8200 14.5492057800293
252.0219 32.2965965270996
252.2700 20.8952293395996
252.8700 207.889404296875
253.0416 498.461364746094
253.2077 18.7407608032227
253.8000 41.0072021484375
253.9476 144.862747192383
254.0700 102.753578186035
254.3900 32.8001480102539
254.5800 18.6966209411621
255.0400 501.138397216797
255.1400 287.170471191406
255.7873 3.1556453704834
255.9580 54.1272621154785
256.1100 254.969253540039
256.2400 62.2751502990723
257.1200 3737.76684570313
257.2533 76.0199890136719
258.1400 25650.62890625
259.1500 10846.193359375
259.8800 29.4515037536621
260.0100 49.6891326904297
260.1400 1115.83215332031
260.2000 699.623046875
260.8956 10.379430770874
261.0100 127.25643157959
261.1200 101.939247131348
261.2200 17.0172710418701
261.8200 31.3211574554443
262.9142 144.420333862305
263.8000 14.9740581512451
263.9500 75.502311706543
264.1200 146.731811523438
264.9400 147.765853881836
265.4300 42.6562347412109
266.0600 11.8265285491943
266.2100 15.0551433563232
266.8300 48.1252822875977
266.9900 313.079376220703
267.2400 42.4455947875977
267.7500 13.2577323913574
268.0200 26.5188941955566
268.1500 12.2801399230957
268.9825 71.5829772949219
269.1100 380.102081298828
269.8400 46.188045501709
270.0900 300.014190673828
270.1900 117.184555053711
271.1500 22973.529296875
272.1500 8467.6318359375
273.0133 1220.5712890625
273.1400 559.401977539063
274.1100 143.993133544922
274.2600 54.4372100830078
274.7500 109.869705200195
274.8660 350.682250976563
275.8740 74.0795745849609
275.9900 112.567337036133
276.2700 12.1875400543213
276.9900 167.19548034668
277.8851 79.4658355712891
278.8481 100.900421142578
278.9546 8.55131530761719
279.1000 33.4096946716309
280.0700 35.3871078491211
280.2000 21.5991497039795
280.9930 125.980529785156
281.1043 57.3978652954102
281.6600 14.7001276016235
281.8855 33.712287902832
282.0658 12.2031860351563
282.7964 28.6637954711914
283.0140 80.7859039306641
283.1300 173.584121704102
284.1112 29.0453033447266
285.0956 37.041015625
286.0302 394.580017089844
286.7700 31.5279235839844
287.1000 284.199645996094
289.8600 184.425537109375
290.9500 651.527465820313
291.8427 69.0509185791016
292.0170 47.9897842407227
292.9552 281.96923828125
293.8000 146.199111938477
293.9107 57.7113037109375
294.9578 243.824768066406
295.0700 76.5773239135742
295.7955 88.642822265625
295.9000 74.6385116577148
295.9962 19.4143371582031
296.1922 19.807861328125
297.0800 985.545288085938
298.0046 161.602630615234
298.1724 67.7541961669922
299.1500 3580.34399414063
299.2100 2258.38891601563
300.0738 204.115783691406
300.2100 1112.83581542969
300.9236 188.495407104492
301.0800 146.877426147461
302.2400 12.5091485977173
302.6200 13.0212154388428
302.9326 48.7831268310547
303.7800 15.0410614013672
303.9600 28.9581260681152
304.8940 13.6589908599854
305.0300 106.201469421387
306.7774 55.3210830688477
306.9200 68.4814453125
306.9903 116.28190612793
307.9100 39.5955963134766
308.8500 17.6568698883057
309.2000 42.6708221435547
309.3900 29.4720039367676
310.5700 12.4570960998535
310.8189 71.1593856811523
311.1071 82.868896484375
312.0600 83.1816787719727
312.1800 141.124069213867
313.1700 613.409362792969
314.2100 37377.38671875
315.2200 8674.4697265625
315.9963 17.9013271331787
316.1600 742.588928222656
316.2200 396.57177734375
317.1000 111.387413024902
317.2300 25.8236789703369
318.8702 9.7607593536377
318.9875 7.21998596191406
319.0700 15.6518688201904
322.8000 28.9323863983154
323.1100 95.9966659545898
324.1700 18.2543048858643
325.1900 14.6265354156494
326.7900 22.8162269592285
327.8200 16.4152278900146
327.9600 80.7894439697266
328.1000 14.9037055969238
328.2000 33.6813354492188
328.6800 11.8244581222534
328.8624 46.246280670166
330.7950 22.2910690307617
330.9197 70.1001510620117
331.0700 12.1540279388428
331.8800 21.2614650726318
333.9700 14.6326351165771
334.7400 102.257797241211
335.1000 41.0696067810059
336.7600 13.7890224456787
338.8100 18.4107074737549
340.9000 14.9021158218384
344.7400 12.7063760757446
345.0410 14.3325119018555
346.1300 16.659854888916
348.8112 30.1285095214844
349.7300 36.3263168334961
350.0200 53.9724731445313
350.7800 13.3464050292969
350.9000 54.9343528747559
351.2300 35.2328605651855
352.7375 28.1227836608887
353.0200 62.392147064209
357.0169 24.8727245330811
358.8400 19.966724395752
359.0800 29.8902759552002
359.2100 12.1688642501831
363.1000 24.9249057769775
365.1400 11.5778675079346
366.7345 6.17413139343262
367.0500 100.921028137207
367.1600 11.7503509521484
367.9300 16.0560836791992
370.8900 75.4485397338867
377.0100 16.8627700805664
385.0200 12.7882423400879
386.7700 19.7495422363281
387.1100 16.3582134246826
400.9407 40.0818481445313
409.5200 14.0925312042236
429.1000 14.1965112686157
465.0700 16.4906177520752
483.8000 12.3236675262451
