#"+EI Scan (rt: 1.991-2.072 min, 15 scans) R7M1.D  Subtract "
#Point,X(Thompsons),Y(Counts)
41.0514 3729.0859375
41.9300 26.3471202850342
42.0284 322.012634277344
42.1800 77.5166702270508
43.0766 4256.5087890625
43.9200 464.631866455078
44.8300 40.0537719726563
45.0600 223.397262573242
45.9300 20.8053035736084
46.0700 30.4270191192627
46.8200 108.470039367676
47.9400 12.7027139663696
48.6900 15.2854089736938
49.7900 21.3450984954834
49.9353 18.6999206542969
50.0300 109.890693664551
50.1600 28.7910671234131
50.8900 53.7983360290527
51.8700 49.083553314209
52.0500 193.621124267578
53.0300 1316.49768066406
54.1300 380.046783447266
55.0600 3806.701171875
56.1100 104.004898071289
57.0360 927.632568359375
57.8700 32.4967002868652
58.0142 32.2837829589844
58.1950 57.3492889404297
59.0449 513.47265625
60.0500 484.720733642578
60.9100 147.333267211914
61.0300 85.2476272583008
61.9400 197.829406738281
62.0700 79.3844833374023
62.9507 205.195617675781
63.0900 90.5686111450195
63.7800 19.4967517852783
63.9100 115.656944274902
64.0336 130.705047607422
64.8989 29.8342590332031
65.0184 424.121887207031
65.7400 14.2738990783691
66.0100 210.211807250977
67.0365 757.9208984375
68.1000 96.2568664550781
68.2600 47.5943756103516
69.0209 993.52783203125
70.0000 322.064819335938
71.1244 31.1609497070313
71.8100 34.8457069396973
72.0200 169.219192504883
72.0959 41.64697265625
73.9323 318.067352294922
74.9954 287.973754882813
75.8900 85.1295928955078
76.0368 481.477630615234
77.0300 431.4833984375
78.0253 979.6103515625
79.0200 598.00146484375
79.8500 43.3494682312012
80.1100 199.634552001953
81.0126 1498.12548828125
82.1100 50.3792915344238
83.0370 1891.66638183594
83.8700 54.6721611022949
84.0495 324.338989257813
84.9855 629.411743164063
85.8200 16.09889793396
86.0700 102.603744506836
86.2000 11.5399103164673
86.9500 251.18049621582
87.0605 151.975936889648
87.8500 124.238540649414
87.9901 247.866058349609
88.1300 17.9514484405518
89.0203 1834.58288574219
89.9945 581.063598632813
90.3400 20.6015892028809
91.0323 902.694580078125
91.7200 41.4938316345215
91.8841 11.2237930297852
92.0550 1.54961395263672
92.9578 292.835327148438
94.1700 85.3201751708984
95.0163 713.965270996094
95.8800 32.3087959289551
96.0050 2.99087524414063
96.1000 223.470733642578
96.2500 65.0144500732422
97.0607 1045.50463867188
97.9600 346.678009033203
98.7600 41.7516479492188
99.1100 116.940704345703
99.9500 47.9081039428711
100.0800 109.313919067383
100.9700 798.209533691406
101.1135 132.713027954102
102.0300 2346.56860351563
102.1600 139.792831420898
103.0200 1212.77111816406
103.9800 385.220642089844
104.0900 116.140495300293
104.2600 51.400276184082
104.8462 34.5845794677734
105.0327 58.5044860839844
105.1400 38.0911521911621
105.7400 30.7437000274658
105.8500 162.158340454102
106.0550 1.25218200683594
106.7000 21.5980129241943
107.0300 327.610260009766
107.7700 46.7848167419434
107.9900 163.262023925781
108.1100 58.7330360412598
109.0300 1250.24267578125
109.8200 38.9425926208496
109.9700 270.997680664063
110.4600 15.168514251709
110.9200 431.374053955078
111.1100 84.8715133666992
111.6900 74.1474304199219
111.8800 47.2526321411133
112.0500 16.3874931335449
112.1400 27.029483795166
112.4000 197.697463989258
112.5300 369.952941894531
112.6800 82.963249206543
113.0500 309.601715087891
113.9699 313.43408203125
114.0800 345.328552246094
115.0100 3156.44287109375
115.8859 52.2115020751953
116.0242 4727.0927734375
117.0174 1342.13037109375
117.9898 9.727294921875
118.0700 548.728515625
118.9400 158.85221862793
119.0499 7.40292358398438
119.7600 59.6043357849121
119.8662 64.8574905395508
119.9600 69.0350646972656
120.0784 160.368789672852
120.3100 44.6561737060547
120.7800 62.4235076904297
121.1600 69.3269577026367
121.3400 11.1181631088257
121.9600 46.7225227355957
122.1700 12.2611999511719
122.9100 447.581573486328
123.9000 90.5415344238281
124.0700 80.3262023925781
124.7700 33.5964088439941
124.9457 61.209716796875
125.0400 453.618133544922
125.8300 106.285202026367
126.0201 48.9203186035156
126.2213 25.201171875
126.8800 140.105422973633
126.9957 228.136352539063
127.0800 312.639831542969
127.8905 105.770080566406
128.0364 2358.88842773438
128.9200 75.3666610717773
129.0318 3291.22973632813
130.0500 5080.181640625
131.0400 1769.87365722656
131.8600 14.8954401016235
131.9756 91.3943786621094
132.1500 93.7972183227539
132.8000 57.8760414123535
133.8200 22.3635177612305
134.0700 117.006568908691
134.9900 1450.76257324219
135.6900 18.9893913269043
135.9700 476.9287109375
137.0148 2311.478515625
138.9681 757.04248046875
140.0500 465.183654785156
140.9700 2230.68920898438
141.7600 25.715015411377
141.8700 80.6984558105469
142.0535 381.461853027344
142.1800 59.0714492797852
143.0047 1669.92211914063
143.0635 704.331237792969
144.0300 13489.095703125
144.9806 1322.38818359375
145.0444 1133.791015625
145.8500 122.773582458496
145.9462 89.4560852050781
146.0400 80.8265914916992
146.2300 12.3616456985474
147.0200 188.863388061523
147.8900 55.5528602600098
148.0500 79.9132461547852
148.6100 13.05078125
148.8200 23.2268543243408
149.1300 67.7718887329102
149.8800 42.5920372009277
150.0000 61.9924697875977
150.1600 12.516622543335
150.9900 1048.92883300781
152.0200 829.812194824219
152.1700 57.1985473632813
153.0400 856.685363769531
154.0328 1240.60949707031
155.0006 504.55419921875
156.0300 836.902526855469
157.0200 1447.30981445313
157.8000 65.9489288330078
158.0700 862.295959472656
158.2200 33.6717071533203
158.9653 1201.955078125
159.9700 275.666198730469
160.9700 1130.85363769531
161.7600 10.5480298995972
161.8676 40.0900192260742
162.0300 49.5264663696289
163.0300 263.6708984375
163.9820 41.394645690918
164.1300 21.6761837005615
164.7100 32.9155616760254
164.9800 232.285675048828
165.0700 383.178802490234
166.0000 728.841613769531
166.2400 19.8416938781738
167.0500 3523.35327148438
168.0500 2207.25146484375
168.9900 776.863891601563
170.0400 1363.70971679688
172.0600 591.227661132813
172.8100 107.742546081543
172.9800 167.594970703125
173.2700 23.0675945281982
173.8800 27.0829677581787
174.0200 411.180969238281
174.1100 298.616149902344
174.9422 239.137481689453
175.1100 71.2018737792969
175.9500 53.4507827758789
177.0021 43.5053253173828
177.1400 34.6799697875977
177.8600 127.494659423828
178.0000 128.758041381836
178.0815 22.6771545410156
179.0300 297.138519287109
179.6500 20.5517330169678
180.0400 1965.81884765625
180.1500 184.160064697266
181.0400 2161.34057617188
182.0551 1806.31628417969
182.1700 29.3269290924072
182.7900 40.2469596862793
182.9482 34.1347351074219
183.0400 892.424621582031
183.9176 307.680267333984
184.0600 528.2548828125
184.9700 860.238464355469
185.0900 241.074676513672
185.8700 35.966682434082
186.0556 72.0283203125
186.1400 236.916015625
186.8700 130.889785766602
187.1000 1153.66198730469
187.9845 32.1938781738281
188.1000 950.980163574219
188.8405 88.7137451171875
189.0200 107.416351318359
189.8300 38.7447166442871
190.0400 62.2259941101074
190.1700 50.9320220947266
191.0500 183.487060546875
191.9000 197.671936035156
192.0000 122.795074462891
192.1500 39.8619041442871
192.9466 208.204223632813
193.0900 179.767333984375
193.9894 22.4949035644531
194.0800 919.30078125
194.9000 245.139251708984
194.9788 519.314331054688
195.9900 581.749755859375
196.0900 1966.47900390625
196.9900 1386.12939453125
198.0349 419.591552734375
198.9700 451.886138916016
200.0047 40.5971374511719
200.1100 229.443420410156
200.9400 381.126434326172
201.8000 43.8436088562012
201.9365 34.4060821533203
202.1500 48.0868339538574
203.0300 96.8888092041016
203.8687 34.9959945678711
204.0200 209.51318359375
205.0100 222.756256103516
205.2000 12.6156520843506
205.8300 36.3309364318848
205.9500 95.9085388183594
206.0556 123.439788818359
207.0117 540.605590820313
207.8200 121.33918762207
208.0217 101.276000976563
208.1200 114.25365447998
208.7700 26.3642406463623
209.0600 392.374084472656
209.9300 140.594177246094
210.0647 1859.7001953125
210.9903 323.642578125
212.1100 864.771118164063
212.8500 72.2625427246094
212.9976 504.386596679688
214.1224 49849.125
215.0247 9177.072265625
215.9918 474.36328125
216.9584 903.8828125
217.9695 224.518325805664
218.9411 446.5009765625
219.8100 178.26725769043
220.0100 115.839584350586
220.8300 156.771392822266
221.9000 221.129180908203
222.1400 55.2443008422852
222.2900 18.73708152771
223.0000 343.937652587891
223.9800 245.662734985352
224.0827 781.596923828125
224.7100 13.6364717483521
224.9200 133.702072143555
225.0100 694.317504882813
225.8800 126.173187255859
226.0371 24.0189666748047
226.1700 75.8391494750977
227.1000 104.924369812012
228.1100 1044.12768554688
229.1069 2899.5009765625
229.9700 101.465316772461
230.0600 453.062438964844
230.2600 37.4875831604004
230.8100 45.5629386901855
231.0400 278.739440917969
231.9000 72.1428375244141
232.0400 45.1754989624023
232.9806 468.80078125
233.9749 86.6429443359375
234.9100 491.784210205078
236.9700 316.75390625
238.0900 4571.7880859375
238.9700 913.660766601563
239.8900 67.1601791381836
240.1100 397.572967529297
241.0200 493.005737304688
241.7200 13.2704839706421
241.9200 43.1541328430176
241.9900 103.730308532715
242.9400 146.009994506836
243.1036 7.84874725341797
244.0100 16.9688472747803
244.2200 15.5299673080444
244.7200 29.10768699646
245.0400 108.676147460938
246.6600 16.2785320281982
246.8200 25.613899230957
247.0600 36.4707565307617
247.8500 13.3882942199707
248.0200 35.9541473388672
248.1600 91.4413604736328
248.7700 80.0798187255859
248.9600 63.5358619689941
249.1800 146.309371948242
249.9900 84.0845794677734
250.0800 31.6790466308594
250.9300 68.0756759643555
251.0400 114.335990905762
251.2000 29.928653717041
252.0500 225.655303955078
252.1689 4097.37353515625
253.1400 2630.37573242188
254.1100 1418.03308105469
254.3000 18.4480304718018
254.9800 294.88037109375
255.1800 144.459533691406
255.9100 10.2274971008301
256.0200 68.4519424438477
256.1200 141.55012512207
256.7800 25.5691566467285
256.8700 291.317199707031
257.7800 21.0891208648682
258.1100 31.5394840240479
258.2200 11.6398878097534
258.5700 11.0572910308838
258.7600 11.5578565597534
258.8600 112.117668151855
259.9600 71.8891448974609
260.8400 94.3442916870117
260.9700 126.604881286621
262.7400 21.096378326416
262.9300 137.938735961914
263.8600 19.902006149292
264.6800 11.1053638458252
264.9300 48.4993553161621
265.9900 49.2644271850586
266.1500 55.231861114502
266.7700 59.5289726257324
267.1900 30.7003307342529
267.8200 12.5545854568481
268.1359 1953.3427734375
268.7900 53.1463470458984
269.1300 373.697235107422
269.2300 34.7171630859375
269.8600 16.0576229095459
270.1200 1211.599609375
270.2700 25.0344219207764
271.0047 592.509643554688
271.8100 24.4647045135498
272.1100 150.264389038086
272.8400 61.4619827270508
273.6600 14.8082447052002
273.8200 88.834114074707
274.0600 16.5819931030273
275.0400 69.9474182128906
275.8500 112.339302062988
276.1000 84.5516052246094
276.8400 277.412170410156
277.8900 218.315582275391
278.1500 25.8910312652588
278.5900 67.8800277709961
278.8100 84.2851409912109
279.1500 15.8317747116089
279.9500 46.2396659851074
280.0900 43.9013328552246
280.3800 13.3766050338745
280.8700 68.3853302001953
281.0011 70.511474609375
281.2100 263.137390136719
282.0000 108.738227844238
282.1400 220.144622802734
282.3000 35.8484001159668
282.7000 13.9489917755127
282.8100 37.2282562255859
282.9700 30.7950057983398
283.1300 81.9580001831055
283.3400 37.040843963623
283.7500 10.2076072692871
283.9000 13.826696395874
286.0600 165.778778076172
286.7300 16.1332015991211
286.8700 180.421875
287.0600 236.384017944336
287.6500 10.8227653503418
288.0900 32.1501502990723
289.0500 760.992553710938
289.7700 104.134567260742
289.9398 24.3021240234375
290.6800 15.1291007995605
290.8700 99.255729675293
291.1300 20.0155334472656
291.8100 44.1987762451172
291.9400 44.495719909668
292.0400 70.1055374145508
294.0900 696.729614257813
295.1000 363.418395996094
296.0300 149.678817749023
296.1759 7125.7138671875
297.0700 1410.23791503906
297.1700 1160.57763671875
297.8800 80.3030853271484
298.0300 311.826721191406
298.1500 43.1678276062012
298.7800 65.2255630493164
299.0400 96.5513381958008
300.8600 27.6844482421875
300.9700 104.613403320313
302.7500 11.3254518508911
303.1400 97.6151580810547
304.0400 36.6036529541016
304.9200 49.7780380249023
305.0600 64.9546051025391
306.0300 10.2064371109009
306.6300 14.7964353561401
306.9500 119.05908203125
307.1200 40.234432220459
307.9800 23.0617713928223
308.2600 10.5773029327393
309.0500 21.608772277832
309.9400 42.6560249328613
310.1000 106.058876037598
310.2200 84.2143478393555
311.2200 5988.966796875
312.0502 7.48532104492188
312.2200 1081.35095214844
312.2800 146.693756103516
312.9500 11.8977451324463
313.0900 123.978408813477
313.2000 146.186462402344
313.3500 29.8038387298584
314.0900 16.5217475891113
314.7600 12.408145904541
315.1200 43.4214019775391
318.7700 10.9038877487183
319.0200 16.2161273956299
323.0100 10.8418760299683
323.1800 21.1281108856201
323.7800 10.5109872817993
325.0700 55.8069648742676
325.1900 10.6906957626343
326.2200 17.9797649383545
326.7500 10.7390604019165
327.0300 11.5287523269653
328.1600 77.0073547363281
329.3000 11.0297393798828
330.8555 23.3396148681641
331.0800 10.1663503646851
335.0600 25.884256362915
338.9300 23.1449508666992
344.9500 57.1750946044922
345.1100 15.5426683425903
346.2000 26.6355876922607
347.0900 29.2040843963623
348.1200 11.5057373046875
348.4800 16.7568264007568
348.7000 14.3353176116943
349.0100 131.689224243164
349.8300 56.3000411987305
350.8900 69.4121322631836
351.1900 15.1752042770386
355.0300 12.4151725769043
360.2400 12.1877994537354
361.0800 10.223687171936
362.9300 46.4744071960449
366.7300 23.1168518066406
366.9500 16.9345378875732
367.7000 12.5983238220215
367.9000 10.9396114349365
368.6600 12.608325958252
370.7900 36.7685623168945
370.9500 18.8966445922852
371.0600 15.4156370162964
386.9300 31.7646808624268
400.9800 27.5307579040527
404.7800 10.3755197525024
422.9000 10.3577432632446
