#"+EI Scan (rt: 1.973-2.072 min, 18 scans) R2M1.D  Subtract "
#Point,X(Thompsons),Y(Counts)
40.0693 40.9027404785156
41.0684 3347.18359375
42.0211 182.493286132813
42.1500 43.2790107727051
43.0601 4035.06420898438
43.9896 163.01513671875
44.9900 477.827362060547
45.8500 22.6646766662598
46.0200 51.5018577575684
46.9850 1.167236328125
47.1300 58.2846412658691
48.7400 10.4881067276001
48.8900 14.9277648925781
49.0500 71.5830917358398
49.7200 18.6027641296387
49.8300 45.3198699951172
49.9837 80.1906967163086
51.8959 6.03142547607422
52.0800 103.086944580078
52.2100 17.8490180969238
53.0245 792.521850585938
53.8300 12.5100154876709
54.0700 350.224212646484
54.2700 19.9451351165771
55.0350 3186.31884765625
56.0331 276.087280273438
56.1600 47.4766502380371
57.0434 840.673095703125
58.1000 258.66943359375
58.2400 26.8246192932129
59.0349 300.142578125
59.9000 66.8596038818359
61.0100 77.3889923095703
61.1600 38.498363494873
61.7800 47.6611785888672
61.9100 113.309913635254
62.0233 106.741073608398
62.3200 8.8837423324585
62.9200 200.858367919922
63.0400 138.823486328125
63.8300 41.8869438171387
63.9541 108.409240722656
65.0388 386.661437988281
65.8000 21.0321350097656
65.9100 102.27611541748
66.0310 109.892196655273
67.0400 1316.53967285156
67.9000 59.1510200500488
67.9939 42.4327697753906
68.0800 118.876899719238
69.0372 1610.22253417969
69.8200 15.3742237091064
70.0400 517.598571777344
71.0857 614.848876953125
71.2100 59.881217956543
72.0000 483.804046630859
73.0300 169.1689453125
74.0500 468.8974609375
74.1600 35.8927955627441
75.0047 242.569458007813
75.1700 86.8868713378906
75.9600 280.936981201172
76.0657 162.565490722656
77.0347 2020.6025390625
79.0242 862.424072265625
80.0300 336.994689941406
81.0011 1348.48681640625
81.8500 31.0627784729004
82.0469 286.705230712891
83.0525 2266.27514648438
83.9700 398.397583007813
84.1800 158.856826782227
84.9900 784.856811523438
86.0300 219.593566894531
87.1123 46.7314147949219
87.7300 19.5353355407715
87.9790 363.555969238281
88.9100 88.9651641845703
89.0389 1497.55004882813
90.0400 783.915771484375
90.2200 67.3485107421875
90.9100 149.504348754883
91.0425 382.642822265625
91.7500 29.3966331481934
91.8500 41.8276824951172
92.0800 75.4487228393555
92.2800 15.2161598205566
93.0184 95.0801544189453
93.0800 140.536849975586
93.7000 14.8938598632813
94.0400 162.554901123047
94.1900 45.7047271728516
95.0046 95.3330993652344
95.1600 27.4286231994629
95.8600 34.7128410339355
96.0942 154.276336669922
97.0490 788.190673828125
97.8000 21.4313583374023
98.7000 9.78067111968994
98.8900 169.805053710938
99.1400 155.552551269531
99.8700 17.5837898254395
100.1300 126.93359375
100.8000 32.8619155883789
100.9884 522.182373046875
101.9700 1103.20166015625
102.0459 443.848876953125
102.9000 247.05793762207
103.0224 543.86669921875
103.8800 61.0540618896484
103.9900 366.8115234375
104.8100 56.6543731689453
104.9400 272.492492675781
105.3100 25.2404232025146
105.5800 33.177188873291
105.9100 172.295761108398
106.0400 24.0680332183838
106.1800 30.2542991638184
106.7900 63.1365547180176
106.9300 331.652709960938
107.5900 18.3423614501953
107.7400 53.9376640319824
108.1000 202.260330200195
109.0245 1043.49609375
110.0700 285.855651855469
110.8300 12.4501934051514
110.9600 450.092468261719
112.0400 96.9800491333008
112.3500 153.466583251953
112.4600 196.890106201172
112.6000 282.79736328125
112.7700 221.58235168457
112.9155 105.356872558594
113.7900 12.3024873733521
113.9466 255.591949462891
114.0600 360.008758544922
115.0500 2651.5234375
116.0209 4030.78271484375
117.0125 1367.40209960938
117.9600 464.42822265625
118.0699 153.420455932617
118.6700 18.6253871917725
118.8900 139.978393554688
119.0065 61.4984130859375
119.5100 10.3902788162231
119.8662 149.477691650391
120.0200 299.688995361328
120.3400 54.6944122314453
120.5700 36.8434219360352
120.8820 131.338134765625
121.0438 94.415771484375
121.7700 52.5521278381348
122.0759 62.1719589233398
122.2700 12.6165962219238
122.9100 366.774627685547
123.9500 123.668350219727
124.0700 48.8955574035645
124.9700 423.726318359375
125.0800 504.553161621094
125.7100 31.1918811798096
125.8621 65.2895812988281
126.0100 123.807754516602
126.8800 351.4326171875
126.9806 574.427917480469
128.0400 2657.1953125
129.0179 2776.1142578125
130.0400 4514.919921875
131.0231 1693.01110839844
131.9400 542.242919921875
132.0394 17.7864837646484
132.9800 824.757934570313
133.8100 62.3037376403809
134.1000 105.612640380859
134.9000 155.128982543945
135.7900 56.9478073120117
136.0921 193.9951171875
137.0100 2636.02734375
137.9858 218.905029296875
139.0000 1805.11633300781
140.0000 628.835632324219
140.1300 90.5564956665039
140.9600 18.0888671875
141.0500 345.863006591797
141.9600 363.678588867188
142.0821 79.8669738769531
142.9949 1499.16162109375
143.0500 905.661987304688
144.0182 11270.791015625
144.9423 149.290161132813
145.0300 2063.61401367188
145.9100 179.007202148438
146.0451 108.959289550781
146.9100 354.852081298828
147.9200 66.2598571777344
148.0200 141.422088623047
148.1800 69.9156494140625
148.8000 78.6658020019531
149.0700 139.477951049805
149.8700 63.9309768676758
150.1200 42.3208465576172
151.0300 821.242309570313
151.8600 43.4906272888184
151.9457 25.0206909179688
152.1000 331.409057617188
152.9500 629.630554199219
153.0350 167.651107788086
154.0180 1197.81799316406
154.9943 1107.083984375
156.0600 832.588745117188
157.0030 313.50537109375
157.7900 56.9545974731445
158.0400 1045.74658203125
158.9650 116.845703125
159.8200 54.7695922851563
159.9311 186.586181640625
160.9811 285.10546875
161.8800 38.5351028442383
162.0289 53.0845260620117
163.0000 215.682754516602
163.7300 10.4378480911255
163.8600 112.709159851074
164.8900 133.307647705078
164.9817 97.9976196289063
166.0200 756.429382324219
167.0300 3324.62231445313
167.8700 94.4078598022461
167.9800 1336.90148925781
168.0556 327.30810546875
168.6100 18.1282596588135
168.9733 438.411865234375
169.0600 208.040145874023
169.7700 120.193725585938
170.0189 686.591064453125
170.1500 69.9413986206055
170.8300 100.131149291992
171.8388 95.4505004882813
172.0069 196.224975585938
172.7300 39.1705131530762
172.8500 76.0528106689453
173.1300 14.1863393783569
174.0200 1193.919921875
174.8300 11.2333631515503
174.9568 174.351501464844
175.0862 90.4888763427734
176.0094 28.8024520874023
176.9000 409.739685058594
177.3100 8.51416110992432
177.7900 51.272274017334
177.9100 251.768341064453
178.0800 111.902763366699
178.2600 22.7951679229736
178.8100 41.0459403991699
179.0600 426.701812744141
180.0100 1002.88854980469
180.0800 948.361083984375
181.0700 1388.03979492188
181.9836 160.364288330078
182.0600 1715.22082519531
182.9700 267.139770507813
183.0700 756.749816894531
183.1900 58.7237129211426
184.0700 847.283203125
185.0000 826.306518554688
185.1200 52.9604721069336
185.9600 146.088592529297
186.0900 34.9656066894531
186.9123 38.4713134765625
187.0500 1175.72265625
188.0900 559.624755859375
188.1600 159.597259521484
188.6600 25.076171875
188.8600 167.163024902344
189.1500 92.8774795532227
189.8400 28.2040405273438
189.9700 92.3635635375977
190.1200 9.63052272796631
190.2500 10.036810874939
190.9000 238.699645996094
192.0500 262.296905517578
192.9700 250.239868164063
193.9300 293.793762207031
194.0500 597.474731445313
194.9000 645.85546875
195.8800 180.603622436523
196.0440 1152.53894042969
196.9429 359.894165039063
197.0800 189.453125
197.8208 5.72515869140625
198.0100 651.444458007813
199.0200 223.641189575195
199.9300 300.626861572266
200.0306 17.3017883300781
200.9800 448.966033935547
201.9000 108.631065368652
202.0489 52.4264755249023
202.7100 22.722297668457
202.9155 93.6108093261719
203.0600 72.5943984985352
203.8000 58.9221038818359
203.9700 49.7922058105469
204.1000 147.404220581055
204.9600 351.284149169922
205.9551 55.2390060424805
206.1100 175.156433105469
206.9200 197.316757202148
208.0800 573.741333007813
208.6400 9.76811027526855
208.9636 172.588851928711
209.0911 59.7137451171875
209.7100 15.7004175186157
210.0400 1727.51550292969
210.1600 122.050064086914
210.9954 1114.21923828125
212.0700 686.35595703125
212.9770 362.533264160156
213.0500 738.44140625
214.1100 45597.41796875
215.0114 6221.611328125
215.9891 1248.42993164063
216.9200 612.701782226563
217.7800 58.4319038391113
218.1200 42.1339416503906
218.9349 183.392578125
219.8800 203.499404907227
220.9800 185.127243041992
221.7600 85.5618057250977
222.0100 176.743591308594
222.1900 40.6089897155762
222.7700 189.224960327148
223.0100 401.781188964844
223.7900 31.0400257110596
223.9192 25.1596221923828
224.0400 484.439880371094
224.1100 463.921325683594
225.0600 562.827880859375
226.0000 163.465255737305
226.1100 213.930603027344
226.9000 188.938415527344
227.1400 27.763147354126
228.1200 1056.69506835938
228.9700 344.769653320313
229.1000 1108.25
230.0800 794.884765625
230.2200 39.310302734375
230.8900 56.4639434814453
231.0003 27.5043334960938
232.0000 111.06755065918
233.0094 1083.4013671875
234.9379 390.986083984375
235.7900 11.884916305542
235.9399 2.38143920898438
236.0200 177.735137939453
238.0718 4112.38134765625
239.0800 1120.22766113281
240.0100 222.786422729492
240.1400 73.4806137084961
240.4400 16.6140670776367
240.8300 157.170043945313
241.7400 24.5176658630371
241.8779 44.8046264648438
242.0000 51.2264556884766
242.1200 42.1240310668945
242.7400 16.9606304168701
242.9900 305.768951416016
243.1700 44.9797515869141
243.9500 30.2154064178467
244.1200 11.664493560791
244.2400 11.4043397903442
244.5800 9.23341655731201
244.9700 228.565292358398
245.1200 54.1217994689941
245.8600 22.9652194976807
246.9500 205.920959472656
247.0800 78.6837844848633
248.2000 18.9544734954834
248.8500 45.3005104064941
248.9800 373.779296875
249.1489 56.0901870727539
249.2500 14.7079181671143
249.9400 23.6504287719727
250.0700 108.51416015625
250.1700 38.0043525695801
250.4600 12.977931022644
250.7400 39.9123992919922
250.8900 31.1125259399414
251.1700 12.1789140701294
252.1513 4182.10498046875
252.8200 23.0722236633301
253.1400 2330.2412109375
254.0200 125.916343688965
254.1266 796.754943847656
254.2800 29.1974105834961
254.9900 256.932495117188
255.1100 162.751205444336
255.8300 9.50344944000244
255.9400 20.9866771697998
256.0600 81.7074661254883
256.9500 194.149841308594
258.1000 8.90130996704102
258.7200 16.44016456604
258.9800 142.112075805664
260.0400 21.0717124938965
260.6700 10.3518381118774
260.9000 47.0009346008301
261.0600 58.7094459533691
263.0100 87.3249206542969
263.1400 74.0597229003906
263.7200 20.8915061950684
264.0600 25.699031829834
264.1800 8.53609657287598
265.0400 19.2124156951904
265.9300 44.3560180664063
266.0866 7.94528961181641
266.2400 21.0909156799316
266.7800 10.2381992340088
267.0707 14.8046340942383
267.1900 37.7202033996582
268.0800 307.476715087891
268.1700 1641.65454101563
269.0800 643.868896484375
269.9800 78.7062606811523
270.1067 257.463806152344
270.1900 648.182861328125
270.3700 30.6177368164063
271.1100 123.350738525391
271.7800 9.15481758117676
272.0217 426.035980224609
272.8100 33.3315505981445
272.9500 900.878234863281
273.7600 75.5772705078125
274.0500 86.7108764648438
275.0500 55.5132293701172
275.6600 14.869912147522
275.8300 64.3848876953125
275.9200 129.174758911133
276.8600 377.232452392578
277.5600 10.912425994873
277.7700 17.3297653198242
277.8900 23.9461708068848
278.0163 140.855865478516
278.7100 9.35509777069092
278.8300 199.318710327148
279.0900 42.3247261047363
279.3000 12.7350425720215
280.0400 150.460968017578
281.0100 462.748748779297
281.1200 173.978454589844
281.6200 10.0537452697754
281.7600 22.9829158782959
281.8900 32.5584449768066
281.9976 75.5004806518555
282.1000 132.80583190918
282.3100 10.0967826843262
282.7000 14.2262115478516
282.9600 183.888748168945
283.1500 12.38148021698
284.7800 31.6451797485352
285.0041 65.6014404296875
285.1700 54.4980926513672
285.7500 68.7700729370117
285.8800 44.2198829650879
286.1200 56.0787925720215
286.9800 308.723205566406
287.7800 8.53387451171875
287.9300 34.0825119018555
288.9648 158.30224609375
290.8884 131.417266845703
291.0105 28.3305358886719
291.9100 76.6719818115234
292.1300 14.7250080108643
292.9749 65.62109375
294.0100 523.400512695313
294.1100 792.459106445313
294.7800 47.75927734375
295.0300 505.971343994141
296.1819 6416.0693359375
296.9100 363.241241455078
297.1400 1779.81860351563
298.0800 199.788360595703
298.2600 37.1189842224121
298.5900 26.918436050415
298.9400 196.058624267578
299.0800 122.422592163086
299.8600 22.7646484375
300.7200 56.0158882141113
301.0300 18.9920997619629
301.1400 8.46871471405029
303.0400 66.6772842407227
303.1800 39.6220512390137
303.9200 10.1433591842651
304.6800 9.91096496582031
304.9500 55.7839393615723
306.0900 21.1456298828125
306.7000 11.6380558013916
306.9400 144.142196655273
307.0400 69.1609573364258
307.8400 42.8472785949707
307.9900 9.88677883148193
308.9500 25.8293800354004
310.1400 96.4449844360352
310.2800 122.900024414063
311.2000 5028.2412109375
311.9500 21.640417098999
312.0600 36.3054046630859
312.1766 750.32470703125
312.2500 339.032012939453
312.4400 28.1874732971191
312.9600 23.8545570373535
313.0700 173.572219848633
313.2117 68.9348678588867
313.4100 22.2937240600586
314.0000 12.405198097229
314.2100 11.4836845397949
314.9900 50.0688819885254
315.1100 73.6284942626953
315.9400 20.2247638702393
318.9300 18.4068069458008
319.0800 47.5189399719238
322.6900 8.90011978149414
325.0200 38.4676322937012
325.3700 9.09538173675537
326.0400 20.7687377929688
326.5500 14.3846912384033
327.1000 30.674446105957
328.0300 45.6423416137695
328.1700 115.262237548828
328.9200 70.0560989379883
329.0400 40.9589691162109
330.0900 70.2786560058594
330.2900 41.4644775390625
330.7800 26.3528003692627
331.0400 50.9750213623047
332.5500 26.3231811523438
332.6400 31.2247447967529
332.8500 22.1833801269531
333.1600 11.2866115570068
333.7800 8.86679840087891
334.9100 51.9364356994629
340.9500 8.52585601806641
344.8700 55.9200134277344
345.0100 19.3399829864502
346.0800 52.0777206420898
347.0200 20.8417587280273
347.2200 10.8432693481445
348.0800 11.7471885681152
348.6500 9.10135269165039
348.9400 154.300476074219
349.0600 75.4141845703125
349.7300 21.6638221740723
350.0300 9.4107494354248
350.6500 12.1563167572021
350.8500 31.3733959197998
350.9700 10.1516609191895
351.1700 9.08633804321289
353.1300 8.896315574646
353.9100 16.9598636627197
354.0300 11.7943077087402
366.8900 28.9819602966309
367.0700 11.4838733673096
367.3600 10.6149444580078
369.0600 12.623927116394
370.8100 9.50537586212158
370.9500 42.719783782959
384.9600 8.61406898498535
386.9700 18.7776107788086
398.8900 12.0113945007324
401.1600 31.3615550994873
408.7700 24.5483169555664
430.8200 9.39221000671387
