#"+EI Scan (rt: 1.985-2.084 min, 18 scans) R1M1.D  Subtract "
#Point,X(Thompsons),Y(Counts)
40.0800 377.417663574219
41.0600 2600.86791992188
42.0800 473.159820556641
43.0572 3208.76416015625
43.9895 204.072631835938
45.0377 68.1278381347656
45.9000 36.3617362976074
47.0600 57.7725410461426
47.9900 8.79230403900146
48.8000 54.1925926208496
48.9500 44.3636817932129
49.7300 9.57534885406494
49.9100 128.396041870117
50.1500 58.0225028991699
51.0139 166.39697265625
51.9100 48.667236328125
52.1600 41.6900177001953
52.9800 743.687744140625
54.0932 135.751586914063
55.0533 2526.52319335938
55.9000 49.396110534668
56.0800 230.845275878906
57.0546 113.02197265625
57.1200 258.466949462891
58.0600 417.879150390625
59.0348 819.890625
60.0400 298.745941162109
60.7400 11.196361541748
60.9900 100.280914306641
61.0800 34.7912254333496
61.9722 112.154899597168
62.0900 142.116271972656
62.9568 188.09114074707
63.1200 72.1827850341797
63.8100 85.2222061157227
64.0400 169.513275146484
64.8800 38.5021896362305
64.9703 296.559753417969
65.8300 33.6286087036133
66.0900 70.7238616943359
66.9000 249.088485717773
67.0156 270.196655273438
67.6600 9.02044296264648
67.9200 110.496795654297
68.1100 255.74137878418
69.0541 799.297607421875
70.0720 179.244995117188
70.1600 27.6022396087646
71.1200 440.874237060547
71.8300 21.8055744171143
72.1700 31.2511596679688
73.0153 244.8642578125
73.9600 373.242065429688
74.9400 445.851409912109
75.8800 137.298904418945
76.0500 732.405883789063
77.0345 1182.45703125
78.0393 1315.037109375
79.0042 749.255859375
79.9435 249.16682434082
80.2100 37.2697639465332
80.9937 1440.6103515625
81.9400 456.062225341797
82.9500 486.964233398438
83.0500 657.268310546875
84.1100 183.951232910156
84.9400 232.234161376953
85.0204 114.532348632813
85.8200 31.4003086090088
86.0800 120.164276123047
86.9300 242.545928955078
87.8200 21.4888229370117
87.9900 580.282104492188
89.0040 1935.5185546875
90.0200 738.694030761719
90.1500 145.929824829102
91.0112 275.225341796875
91.1100 190.485137939453
92.0600 100.021659851074
93.0400 344.463256835938
93.7800 22.8567409515381
94.9000 39.3652763366699
94.9875 453.517822265625
95.7600 25.5956802368164
95.9689 40.3064575195313
96.0719 53.5236663818359
96.2000 95.3957214355469
97.0737 940.028198242188
98.0800 166.129165649414
98.1900 180.066940307617
99.0052 118.435150146484
99.1900 97.8661727905273
99.9800 189.686325073242
100.0800 39.8078460693359
100.9700 610.499450683594
101.0655 9.60356140136719
101.9344 447.995574951172
102.0586 1042.25439453125
103.0242 976.01123046875
104.0100 434.46240234375
104.5700 32.808422088623
104.7800 110.334945678711
104.8800 79.7247009277344
105.1600 93.1154403686523
105.7000 59.7691230773926
105.8700 79.6586532592773
105.9800 36.3044776916504
106.7100 26.4873867034912
106.8352 4.3170166015625
107.0031 249.480010986328
107.1100 24.8001804351807
107.5300 8.60365009307861
108.0600 128.604415893555
108.1500 60.4202346801758
109.0009 935.1484375
110.0400 334.750946044922
110.8000 33.1038665771484
110.9300 74.1526565551758
111.1000 194.898895263672
111.9100 31.24391746521
112.1700 62.6334571838379
112.3800 309.913696289063
112.6700 218.807052612305
112.8400 276.263641357422
113.1000 54.9176788330078
113.8900 144.12922668457
114.0022 469.708374023438
115.0246 2253.56787109375
116.0387 3158.35375976563
117.0200 1807.45544433594
117.9500 525.196350097656
118.0800 430.25244140625
118.7200 27.8623237609863
118.8300 96.1830139160156
118.9500 285.800170898438
119.2200 33.1389045715332
119.6800 37.3451156616211
119.8200 171.342971801758
119.9500 205.261810302734
120.1200 64.1091613769531
120.2600 9.13278961181641
120.7500 34.2866363525391
121.9600 112.5703125
122.0800 27.5675163269043
122.9000 454.424102783203
123.8800 121.010482788086
124.1000 24.6299591064453
124.1900 35.8056449890137
124.3000 9.35233879089355
124.8519 24.9745864868164
124.9600 627.5029296875
125.8700 45.9974098205566
126.1400 94.9414367675781
126.7900 30.8699340820313
126.9900 223.525817871094
127.0700 306.095764160156
127.8900 69.4735794067383
128.0229 2174.8095703125
129.0164 2235.53491210938
130.0400 4921.697265625
130.9500 592.116027832031
131.0187 657.580749511719
131.8800 84.2595291137695
131.9822 43.9387664794922
132.0800 245.566329956055
132.2200 19.3318557739258
132.7700 84.0318222045898
132.9400 747.156982421875
133.7300 31.5815505981445
133.8653 3.13473510742188
134.0700 140.343200683594
134.9300 589.300659179688
136.0428 346.869201660156
136.2200 37.748836517334
137.0050 524.4296875
137.9908 498.35546875
138.9600 1628.12805175781
139.6500 9.56682205200195
139.8100 20.123592376709
139.9175 51.2507019042969
140.0549 153.257766723633
140.9652 170.45703125
141.9757 424.010345458984
142.1035 40.6982727050781
142.9500 366.058044433594
143.0229 1789.23498535156
144.0239 9174.8310546875
145.0334 2016.52490234375
146.0000 158.169097900391
146.1000 64.9098434448242
146.3200 12.5796852111816
146.9000 154.222366333008
146.9690 135.064178466797
147.1400 18.7420196533203
147.9700 162.619567871094
148.1400 32.7674598693848
148.5600 37.9622268676758
148.7200 16.4914817810059
149.1100 92.6611251831055
149.8600 52.6316680908203
150.3800 8.36059665679932
151.0600 514.425048828125
151.8200 21.2665309906006
151.9701 117.066589355469
152.0900 238.96630859375
152.8900 157.104354858398
152.9979 181.632110595703
153.7800 25.191032409668
153.9100 91.0557479858398
154.0445 915.22021484375
154.9760 354.47412109375
156.0200 1595.34289550781
157.0000 504.993041992188
158.0363 634.164184570313
158.1500 55.522777557373
158.9750 127.326171875
161.0000 923.398864746094
162.0000 88.0133514404297
162.8400 238.836944580078
163.7200 15.8078308105469
163.8800 150.084869384766
164.1100 41.6732711791992
164.7800 25.5436363220215
165.0000 369.434600830078
165.0991 55.6090698242188
165.5000 15.2470045089722
166.0500 550.845825195313
167.0200 3344.44506835938
167.9863 428.421783447266
168.0500 1146.47241210938
169.0100 752.819641113281
169.8813 71.2572631835938
170.0400 433.90478515625
170.5800 30.8247547149658
170.8000 33.3517456054688
170.9412 92.7386474609375
171.7700 19.4796695709229
172.0800 114.706756591797
172.8200 133.279266357422
172.9900 46.02001953125
173.7300 31.5367259979248
173.9000 36.4258003234863
174.0500 961.956909179688
174.1600 60.9478302001953
174.8900 14.7801837921143
175.0000 505.649627685547
175.8800 56.7910346984863
175.9900 15.8229875564575
176.7000 17.244815826416
176.8300 86.7666625976563
177.0300 191.824310302734
177.9547 80.2775268554688
178.0800 75.5353469848633
178.2200 31.7312927246094
179.0038 232.879913330078
179.7400 15.9902000427246
179.8900 72.3385467529297
180.0010 544.930541992188
180.0841 653.784484863281
181.0200 1744.43469238281
181.7800 10.3217086791992
181.9100 52.0647583007813
182.0426 1073.15991210938
182.8900 192.928268432617
182.9909 67.3704223632813
183.7600 25.520902633667
184.0500 537.295837402344
184.9800 580.961242675781
185.5900 15.5421600341797
185.7700 10.0273780822754
186.1200 253.136611938477
187.0800 1678.71435546875
187.9792 16.8582611083984
188.0800 646.065612792969
188.9300 246.02409362793
189.0100 84.1466979980469
189.7600 13.4412975311279
189.8900 61.4367485046387
190.0100 62.0894317626953
190.7800 61.3815765380859
191.0600 69.367431640625
191.9800 245.30354309082
192.1300 80.2195358276367
192.2900 13.2525835037231
192.9800 1080.32531738281
193.8500 91.3832778930664
193.9700 340.375549316406
194.0821 232.580963134766
194.9700 450.98779296875
196.0800 1806.39111328125
196.9000 234.013809204102
196.9911 374.189331054688
197.9400 262.537963867188
198.7900 135.645126342773
199.0000 678.233947753906
199.7900 17.5613327026367
200.0900 362.148681640625
200.9326 373.72607421875
201.6000 11.9477691650391
201.7500 46.7128601074219
201.9323 50.9441375732422
202.0500 82.6071853637695
202.8400 158.851257324219
203.6400 11.8477382659912
203.7900 40.6300621032715
203.9194 10.9223937988281
204.0500 136.623107910156
204.1700 15.2629985809326
204.9100 289.575073242188
205.0000 116.668090820313
205.9100 178.14892578125
206.1000 63.3619651794434
206.9958 527.493408203125
207.6500 24.8390197753906
207.8900 26.9578437805176
208.1300 244.253768920898
208.2300 16.3890037536621
208.6000 11.2369422912598
209.0300 201.011199951172
209.1400 22.6764602661133
209.8300 13.2382745742798
209.9500 78.5850601196289
210.0635 1193.61962890625
210.2200 85.7923049926758
211.0150 79.54541015625
212.0000 911.365905761719
213.0153 162.272338867188
214.1174 35734.67578125
215.0112 5277.6328125
215.9666 528.09814453125
216.9560 298.512573242188
217.7100 70.8273391723633
218.0300 175.53532409668
218.1600 18.9145431518555
218.9642 510.9208984375
220.0000 617.173950195313
220.8000 47.1325225830078
221.1200 48.7568397521973
221.7500 43.4018135070801
222.0900 85.1618957519531
222.2400 66.8992919921875
222.8930 145.189208984375
223.8200 89.8884429931641
224.0344 695.860107421875
224.5300 13.8489503860474
224.7100 25.1919040679932
224.8600 33.941333770752
225.1000 244.220642089844
225.2500 12.5415344238281
225.9600 189.538757324219
226.1200 100.436851501465
226.6700 11.6463079452515
226.8500 70.2533340454102
226.9500 8.34869384765625
227.0800 79.1639709472656
227.8300 13.5576057434082
228.1100 704.942565917969
229.0047 699.064208984375
229.1175 1140.74389648438
230.0900 445.073181152344
230.9900 317.116088867188
231.1100 133.56364440918
231.6800 9.22057342529297
231.8500 23.7226085662842
231.9600 67.0892486572266
232.1100 38.206413269043
232.9850 136.98046875
233.8800 221.650604248047
233.9803 98.9559326171875
234.9000 572.030517578125
235.7900 88.0390930175781
235.8900 96.1211318969727
238.0900 2975.744140625
238.8100 81.3185043334961
238.9700 1361.84912109375
240.0600 358.649932861328
240.2300 26.7359962463379
240.9400 1016.09417724609
241.0500 64.3749618530273
241.8800 167.69416809082
242.3100 11.4890556335449
242.6000 14.0872468948364
242.9700 250.738250732422
244.0100 23.401237487793
244.1400 30.5765895843506
244.6100 15.6031188964844
244.8500 135.723571777344
245.9600 39.0085258483887
246.9100 73.2180633544922
248.0900 32.4746856689453
248.8400 93.1976318359375
249.0800 439.064270019531
249.8100 27.3835544586182
249.9700 25.0783996582031
250.1000 16.1524238586426
250.7900 18.5823211669922
250.9200 46.0422286987305
251.0433 52.1307754516602
251.9400 22.0892086029053
252.1200 2310.796875
252.1946 849.635620117188
252.8300 42.6054420471191
253.0567 330.73193359375
253.1700 1397.96752929688
254.0000 175.768798828125
254.0791 226.501708984375
254.1900 434.234008789063
254.7800 10.2680187225342
254.9933 40.3723602294922
255.0600 251.196838378906
255.1900 23.9665508270264
255.9000 50.5777931213379
256.0100 69.1734237670898
256.1700 22.1043472290039
256.6800 11.705491065979
257.1200 40.5729484558105
257.7400 19.8554210662842
257.9300 18.7110900878906
258.7700 49.5052032470703
258.8700 131.854278564453
259.1300 18.8382434844971
259.7800 9.99260139465332
260.0000 25.1201953887939
260.1200 11.0945272445679
260.9000 230.825576782227
261.0800 62.9927215576172
262.7900 27.9940090179443
262.9000 133.57177734375
263.9300 9.46070289611816
264.1200 20.2194957733154
264.7700 20.9046897888184
264.8900 18.5211963653564
265.1700 15.7756500244141
265.9800 11.4471311569214
266.1700 77.2187194824219
266.7600 48.6313095092773
266.9300 164.940231323242
267.2500 8.91976165771484
267.7900 38.4118385314941
268.0300 535.187438964844
268.1719 882.905883789063
268.9000 60.8818550109863
269.0100 372.5224609375
270.1100 809.868530273438
270.4600 14.119610786438
270.9400 700.616455078125
271.8100 35.8570976257324
271.9155 21.6861724853516
272.2600 19.3884506225586
272.9658 670.564819335938
273.7800 105.640701293945
273.9638 28.6476440429688
274.1700 19.3591995239258
274.9101 11.442626953125
275.0300 109.608436584473
275.7500 55.2177886962891
276.5900 15.5889348983765
276.8100 70.020881652832
277.1300 23.534740447998
277.7600 31.172981262207
277.9500 203.919387817383
278.0400 36.8758163452148
278.9600 242.545974731445
280.0500 108.62353515625
281.0400 396.430877685547
281.1800 102.311798095703
282.1600 149.771072387695
283.0100 123.546737670898
283.1900 27.5917644500732
284.1400 20.6592903137207
284.7900 52.9314117431641
284.9300 681.274475097656
285.7000 34.3778495788574
285.8500 67.8728408813477
286.0700 152.236022949219
286.9380 64.6737976074219
287.0100 195.188537597656
287.1000 122.119842529297
287.8600 19.6316394805908
288.0100 10.9202785491943
288.1400 22.3327293395996
288.9851 53.080322265625
290.0300 296.965942382813
290.7500 25.9147758483887
290.9072 81.5372314453125
291.7100 10.7182025909424
291.8700 46.5806007385254
292.1700 19.4531002044678
293.8800 248.726013183594
294.0600 645.6689453125
294.8400 32.9298095703125
295.0800 369.90478515625
296.1835 4950.94921875
297.0292 148.135498046875
297.1300 1341.07312011719
297.7500 80.6406478881836
297.8900 129.740173339844
298.2100 56.4419403076172
298.4100 13.5282487869263
298.6900 14.3203954696655
299.7600 40.9197235107422
300.7600 60.3732109069824
300.8670 12.1846008300781
301.0600 23.8495082855225
302.9100 71.5274963378906
303.0800 133.744659423828
303.2200 13.7636384963989
305.0600 30.6747646331787
306.9300 143.72785949707
307.0900 63.9853973388672
308.0200 21.3734378814697
308.1100 21.9000587463379
308.7400 12.4508438110352
308.8400 43.9084701538086
309.0900 24.3353042602539
309.2700 9.83503913879395
309.9700 31.7406997680664
310.0600 23.688606262207
310.2000 163.786880493164
311.0500 151.702972412109
311.2017 3721.23754882813
312.1800 848.831176757813
312.7900 12.3733682632446
313.0200 16.397647857666
313.1200 259.578369140625
313.3500 13.8145942687988
313.8700 14.6218824386597
314.1900 12.4160814285278
314.8100 31.8717727661133
315.0500 115.956314086914
315.2200 27.4011268615723
316.8700 31.769021987915
318.7300 18.5833053588867
318.9000 8.58056259155273
319.0800 19.8443202972412
320.0300 10.0017623901367
322.9400 9.16771984100342
323.0700 25.2369213104248
324.3400 9.43700313568115
325.1500 35.1881523132324
325.3200 13.4443311691284
326.1700 14.3268566131592
326.8400 30.3694667816162
327.1100 25.6905212402344
327.9100 22.3003921508789
328.2800 64.0168304443359
328.7100 13.4884653091431
329.0700 16.0593566894531
329.2100 11.5356903076172
329.9200 26.6437282562256
330.0700 12.4884119033813
330.1800 8.58672332763672
330.5400 9.62179946899414
330.7200 10.169322013855
330.8871 25.1507720947266
331.0100 57.2166404724121
331.9100 10.6489400863647
332.7900 13.2916879653931
332.9000 34.6633834838867
333.0300 22.1822280883789
334.7300 9.86632823944092
334.8600 11.0748615264893
335.1400 14.8238983154297
344.7800 19.727518081665
346.1400 70.3338394165039
346.9300 12.6284914016724
347.0400 11.1775407791138
348.6900 9.7792854309082
349.0000 90.0860900878906
349.1200 62.0985374450684
349.3100 11.6921377182007
349.8200 9.95855903625488
349.9300 15.7498693466187
350.0400 8.3776273727417
350.8100 32.6352310180664
350.9300 39.1485557556152
351.8300 9.61835765838623
352.9000 45.8405494689941
352.9900 118.110610961914
353.1400 18.969690322876
353.9800 11.5237579345703
354.7000 13.4224815368652
354.8500 30.815616607666
355.0500 51.6662445068359
356.7700 11.6516571044922
356.9000 15.0553779602051
357.0600 9.38493728637695
358.9900 37.3077545166016
366.9400 53.7931213378906
367.0600 38.2767562866211
367.2400 8.88836097717285
369.1900 21.6748657226563
370.8000 32.6455192565918
370.9100 52.2359504699707
371.1000 9.32586574554443
386.8400 9.06056785583496
395.0200 14.84437084198
401.0200 19.3349380493164
404.9000 11.7250747680664
408.9600 32.1494674682617
464.9200 9.59176158905029
483.0300 9.06314659118652
