#"+EI Scan (rt: 2.649-2.708 min, 11 scans) R4M1.D  Subtract "
#Point,X(Thompsons),Y(Counts)
40.1098 3946.08154296875
41.0800 95504.8359375
42.0900 13101.701171875
43.1000 69877.015625
44.0538 8024.28271484375
45.0360 3761.22607421875
45.8466 38.7915191650391
46.0689 1226.42529296875
47.0478 17059.283203125
47.9600 154.570373535156
48.0700 305.271759033203
48.9430 118.767539978027
49.0614 96.7322998046875
49.9974 1243.75769042969
50.0715 1451.11071777344
51.0352 8251.625
51.9158 61.3967056274414
52.0302 3141.82104492188
53.0703 8658.4990234375
54.0700 5324.31494140625
55.0792 47107.87109375
56.0587 16905.88671875
57.0543 4000.15209960938
58.1191 2285.91577148438
59.0389 59444.16796875
60.0306 4621.04833984375
61.0200 1941.02258300781
61.0801 2947.01416015625
62.0194 7577.330078125
63.0394 10885.2119140625
64.0182 5017.1494140625
65.0391 5692.7294921875
65.9492 368.371887207031
66.0407 1501.05102539063
67.0494 9000.2001953125
68.0695 4901.302734375
69.0796 69028.015625
70.0801 18981.95703125
71.0797 30714.712890625
72.0902 12230.7265625
73.0565 12657.814453125
73.9957 484.760986328125
74.0500 2222.97387695313
75.0270 11598.205078125
76.0299 25899.96484375
77.0369 46817.4296875
78.0373 10169.6083984375
79.0131 2554.548828125
79.8888 243.219329833984
80.0378 379.616271972656
80.1800 77.8020248413086
80.9865 2860.19604492188
82.0200 2462.91040039063
83.0279 6050.7802734375
84.0198 1722.13708496094
84.1800 96.7490921020508
85.0388 3042.87548828125
85.9282 174.634963989258
86.0301 2427.34692382813
87.0698 8877.2119140625
88.0300 65104.9140625
89.0298 52722.265625
90.0299 116890.5859375
91.0401 17744.18359375
91.8649 50.7995681762695
92.0402 4154.640625
92.9028 146.10302734375
93.0259 88.9159240722656
93.1200 768.329345703125
93.5200 70.8278198242188
93.6600 146.635116577148
93.7800 201.387756347656
93.9176 116.454399108887
94.0744 32.3193969726563
94.9162 104.689605712891
95.0300 701.58544921875
95.1310 6.45875549316406
95.8626 163.301116943359
95.9851 639.33447265625
96.9349 9.75967407226563
97.0788 1247.60998535156
98.0498 15499.5439453125
98.7974 68.1752014160156
98.9300 59.5840301513672
99.0502 2003.22802734375
99.9266 61.2958297729492
100.0300 1337.43994140625
100.1400 539.138122558594
101.0600 5409.365234375
102.0400 65518.44921875
103.0400 179341.546875
104.0400 56344.88671875
105.0293 6548.31201171875
105.9708 603.36376953125
106.1112 204.777099609375
106.2503 657.627990722656
106.5400 513.167602539063
106.6408 780.148559570313
107.0368 181.996887207031
107.3300 486.845611572266
107.5300 384.901458740234
107.6500 249.706848144531
107.8948 259.260223388672
108.2539 21.9569206237793
109.0169 2899.54418945313
110.0122 522.932434082031
110.9207 257.991485595703
111.0558 266.252532958984
112.0000 120.320701599121
112.0900 127.486785888672
112.2800 76.9389724731445
113.3500 85.0432357788086
113.5200 210.583557128906
113.6500 1496.814453125
113.7800 705.877868652344
113.9300 1808.99829101563
114.0799 856.762634277344
115.0390 9025.400390625
116.0398 15265.9453125
117.0397 61764.28515625
118.0300 20502.607421875
118.8713 11.4258117675781
119.0297 5893.76708984375
119.9900 910.517578125
120.1004 180.536926269531
120.9500 691.183471679688
121.0389 3121.36840820313
121.8491 48.5545501708984
122.0295 521.641906738281
122.1900 31.4989242553711
122.6781 45.6838302612305
122.8910 196.696365356445
122.9925 240.769744873047
123.6800 30.375804901123
123.8042 4.71247100830078
123.9285 12.8667545318604
124.0500 262.865875244141
124.2500 18.9687767028809
124.7200 14.6585655212402
124.9451 142.483367919922
125.0918 304.395904541016
125.8121 82.3677368164063
125.9986 459.475280761719
126.0900 238.641708374023
126.9974 3582.62524414063
128.0494 9763.3916015625
129.0399 80453.90625
130.0600 106598.1875
131.0500 235605.484375
132.0500 32417.10546875
133.0368 4140.90478515625
133.7893 9.79369926452637
133.9671 316.246887207031
134.1067 373.071868896484
134.3230 34.4090576171875
134.9749 1626.63732910156
136.0008 578.626586914063
136.1098 201.554382324219
137.0069 20641.283203125
137.9963 2163.06396484375
138.9099 362.206665039063
139.0167 1184.91906738281
139.9861 513.958251953125
140.1097 668.493225097656
140.8800 103.044738769531
140.9953 2162.82006835938
142.0601 6798.37744140625
143.0598 19383.408203125
144.0600 40312.94921875
145.0400 683778.3125
146.0400 68106.65625
147.0298 5931.89990234375
147.8182 61.352367401123
147.9794 938.526123046875
148.1200 217.014022827148
148.9809 1476.09106445313
149.0711 1043.81994628906
149.9612 199.096313476563
150.0900 225.147445678711
150.9936 1249.30114746094
151.9858 879.143188476563
152.0700 617.859191894531
152.8883 552.0166015625
153.0229 215.634918212891
153.8061 90.145133972168
153.9906 943.907470703125
154.0704 1018.58502197266
155.0130 8368.3994140625
156.0397 10283.275390625
157.0597 19915.791015625
158.0697 32263.47265625
159.0110 16089.8125
160.0128 3815.21264648438
161.0400 11587.9091796875
161.8000 19.3870868682861
161.9892 996.0068359375
162.0700 429.034088134766
162.3000 18.0414810180664
162.9642 1506.08374023438
163.8981 215.613632202148
164.0232 192.916961669922
164.9587 264.755950927734
165.0410 817.7197265625
165.9005 116.190277099609
166.0114 464.607818603516
166.8123 17.2646255493164
166.9848 1598.44946289063
168.0486 2774.8779296875
168.1607 303.670654296875
169.0499 5295.1171875
170.0500 4779.376953125
171.0592 31068.20703125
172.0699 10526.826171875
172.9487 125.698394775391
173.0602 5157.64013671875
174.0700 101295.15625
175.0700 63246.5703125
176.0600 8836.1142578125
177.0399 73803.4375
178.0399 8204.3935546875
178.9718 344.208679199219
179.0600 559.64794921875
179.8766 38.5452041625977
180.0008 324.806549072266
180.1400 60.7936668395996
180.9826 743.768676757813
181.0500 963.923583984375
181.8100 36.0768928527832
182.0401 1233.78344726563
183.0573 2991.68676757813
183.1598 350.373962402344
184.0600 4925.39208984375
185.0900 26159.78515625
186.0600 9174.2802734375
187.0485 4067.64086914063
187.8966 71.9242477416992
188.0496 1562.84008789063
188.5500 25.1815967559814
189.0481 1312.06030273438
189.8300 71.7688064575195
190.0197 330.024536132813
190.1200 75.7304153442383
190.9404 784.027587890625
191.1100 182.393371582031
191.8679 106.783508300781
192.0674 247.710601806641
192.6300 40.5296897888184
192.9456 338.441741943359
193.0718 445.328735351563
193.8617 85.4487075805664
194.0246 207.985717773438
194.9744 1335.77026367188
196.0505 846.620544433594
196.8977 144.185791015625
197.0265 1238.70825195313
197.9665 866.395080566406
198.1002 613.681762695313
199.0700 8913.49609375
199.8958 31.2626781463623
200.0500 5469.328125
201.0272 4316.1025390625
201.9900 127.847259521484
202.0795 1270.85754394531
202.9468 76.5133972167969
203.0697 6632.62744140625
203.8637 15.2860984802246
204.0398 1089.4794921875
204.1300 472.075012207031
205.0885 4543.04638671875
205.7887 26.9659118652344
206.0190 461.848571777344
206.0997 1093.29125976563
207.0219 1692.1337890625
207.9337 51.6705932617188
208.0646 415.067840576172
208.9400 240.376480102539
209.0432 382.175170898438
210.0245 637.38037109375
210.1300 900.084533691406
211.0143 5868.119140625
212.0716 3800.36767578125
213.1100 105927.890625
214.0997 18041.60546875
215.0085 14882.8359375
216.0393 6162.4091796875
216.9682 2142.56005859375
217.9656 380.036071777344
218.0517 229.774276733398
218.9536 3055.88208007813
220.0602 2175.50073242188
221.0393 1126.44128417969
221.1409 397.41357421875
221.7882 22.9686660766602
221.9254 171.4951171875
222.0658 111.423751831055
222.9287 716.502014160156
223.9400 221.027084350586
224.1100 157.261138916016
224.9242 342.276336669922
225.0470 216.435943603516
225.7900 93.2867660522461
225.9983 257.492340087891
226.1400 413.461944580078
226.2700 57.7030906677246
226.8147 84.1408843994141
226.9100 143.291397094727
227.0556 586.846069335938
227.1800 81.7852401733398
228.1100 10336.0302734375
229.0885 4753.3125
229.9968 469.814727783203
230.1094 1677.79943847656
231.0900 17944.404296875
232.0997 12102.0390625
233.1200 1415783.25
234.1200 213421.140625
235.1098 19522.244140625
236.0051 278.471374511719
236.0902 950.389831542969
236.9868 6563.169921875
237.9924 1413.861328125
239.0088 1218.22216796875
239.7907 11.5014543533325
240.0400 322.384063720703
240.1491 204.237838745117
240.8969 735.941345214844
241.0207 150.520782470703
241.9514 285.57470703125
242.1200 454.340057373047
242.7111 39.9230842590332
242.9535 260.229919433594
243.0500 239.748550415039
243.9800 173.074279785156
244.0800 939.131774902344
244.1800 53.8452186584473
244.9900 275.075988769531
245.0889 545.453308105469
246.1200 6185.89404296875
246.9900 150.853958129883
247.1400 8296.3837890625
248.1000 3924.34985351563
249.1300 149725.109375
250.1200 23028.3359375
251.0000 108.137405395508
251.1100 1910.45422363281
251.8518 17.1402950286865
251.9600 42.3733177185059
252.1200 124.977851867676
252.2700 23.9626331329346
252.8097 53.0827026367188
252.9377 123.150787353516
253.0629 181.880767822266
253.8500 45.1612510681152
253.9900 85.5832672119141
254.1200 98.1644287109375
254.9316 148.99951171875
255.0747 67.6486434936523
256.0175 260.040222167969
256.1200 474.423461914063
256.2300 94.2651138305664
256.5700 21.4128952026367
257.0061 488.594787597656
257.9600 163.110565185547
258.1000 198.089584350586
258.6600 22.3685779571533
258.9733 373.978363037109
259.1100 136.646728515625
259.9000 136.204574584961
260.1302 1165.75561523438
261.1700 10950.90234375
262.0500 313.2392578125
262.1700 2015.53515625
262.2800 86.2587356567383
262.7677 18.7766380310059
262.9427 226.455230712891
263.0900 105.207374572754
263.2200 90.6403503417969
263.8100 34.3877067565918
264.0800 130.261779785156
264.8408 101.178634643555
264.9518 44.4437522888184
265.0300 118.739189147949
265.7400 24.6493663787842
266.0300 53.1314353942871
266.7362 19.7829475402832
266.8796 78.9291076660156
267.0414 146.951385498047
267.8919 22.3941326141357
268.0122 108.609848022461
268.2200 68.2885284423828
268.9233 189.338790893555
269.0521 138.088684082031
269.8800 30.5217456817627
270.0200 166.522964477539
270.1300 479.60009765625
270.2300 181.388305664063
270.9263 343.006530761719
271.0215 336.868957519531
272.0897 1325.13879394531
272.9360 351.750732421875
273.0900 588.682678222656
273.9906 213.429214477539
274.0900 1747.22412109375
274.1800 601.200927734375
275.0241 1194.8505859375
275.1700 232.313385009766
276.0634 406.456665039063
276.9389 574.044799804688
277.9441 139.208068847656
278.0701 416.914764404297
278.7707 57.747257232666
278.9726 164.353759765625
279.0700 117.388404846191
279.9494 24.4577255249023
280.1500 40.2386474609375
280.8314 128.646148681641
280.9954 211.668121337891
281.4100 17.2906055450439
281.8000 18.2825183868408
281.9100 136.597106933594
282.0505 188.874618530273
282.2000 60.6935997009277
282.8502 52.5197257995605
282.9900 99.3084487915039
283.1300 221.93994140625
284.1200 993.135009765625
284.2000 1794.34033203125
285.1003 1395.28369140625
286.1191 2305.96313476563
287.1100 1384.59594726563
288.1500 11528.80078125
289.1100 18824.552734375
290.1300 3966.126953125
290.9858 428.617736816406
291.1011 216.042831420898
291.9786 297.521820068359
292.2000 48.7621192932129
292.9631 1767.60375976563
293.9095 375.461151123047
294.0322 282.358520507813
294.8875 129.460052490234
294.9924 397.218963623047
295.1000 88.5012664794922
295.7800 63.6465148925781
295.9963 92.0534591674805
296.2600 21.6371307373047
296.9508 428.369750976563
297.0400 327.474304199219
297.8400 165.269439697266
298.0037 179.272842407227
298.4900 19.8606433868408
298.8237 259.152130126953
299.0114 84.7714080810547
299.2500 33.8454322814941
299.8300 40.0265502929688
299.9600 76.3251495361328
300.1000 312.358581542969
300.3700 39.1701393127441
300.4989 9.9808292388916
300.6841 39.6407165527344
300.9063 189.425857543945
301.0700 69.2537078857422
301.1700 159.030120849609
302.0477 76.0840148925781
302.1800 2867.02221679688
303.1495 4006.35424804688
304.1900 613856.5625
305.2000 124474.3828125
306.1900 13308.47265625
306.9965 241.095230102539
307.1500 970.374755859375
307.9055 10.1172790527344
308.0400 88.1785202026367
308.9300 72.0683059692383
309.1300 106.205024719238
310.2100 16.53493309021
310.8124 33.8393783569336
311.0327 193.826217651367
311.3200 15.934757232666
311.9300 38.3778038024902
312.0200 57.482723236084
312.2200 53.6271743774414
312.9200 14.311990737915
313.0300 32.7449684143066
313.9400 25.0025081634521
314.0842 57.4480743408203
314.8300 55.2887306213379
314.9610 154.925018310547
315.0500 105.864837646484
316.1300 5570.57373046875
317.1200 833.847473144531
317.2200 406.7451171875
318.0100 73.9723663330078
318.1900 275.586944580078
318.7778 30.7318687438965
319.0873 202.070617675781
319.2200 73.8015060424805
320.0800 841.639831542969
320.1500 12657.15234375
321.1500 12888.6845703125
322.0200 162.991165161133
322.1300 2072.67602539063
323.0600 145.589904785156
323.1500 236.443954467773
324.8828 58.8751678466797
326.7600 13.8256540298462
326.9800 14.4496364593506
327.1300 16.841100692749
327.2500 17.5391254425049
327.8000 17.9018077850342
327.9600 52.0477256774902
328.1400 18.3611145019531
328.3100 16.6555309295654
328.7818 11.3505840301514
328.9583 48.3491973876953
329.1029 25.3255558013916
329.8000 23.1922836303711
330.1400 1172.80249023438
331.1399 2321.48950195313
331.1900 4465.009765625
332.0500 125.692825317383
332.1700 3476.71875
332.9495 20.6672706604004
333.1200 724.659912109375
334.0500 132.702667236328
334.2400 552.940002441406
334.8755 26.4740352630615
335.1700 161.823989868164
335.3700 14.2083826065063
340.9500 26.1395092010498
342.0200 90.9288787841797
342.1300 96.1801223754883
342.2500 152.286041259766
343.0000 139.008804321289
343.1500 341.922515869141
343.2700 249.873672485352
344.0000 91.7980575561523
344.2500 67.900764465332
344.8800 25.5721321105957
345.0100 54.1416625976563
345.1500 389.136047363281
346.1000 305.227294921875
346.2500 288.927856445313
346.9800 176.84521484375
347.1700 57.6323013305664
347.2900 41.0048980712891
348.0100 119.341133117676
348.1900 1625.69921875
348.8833 68.2737808227539
349.0503 507.006225585938
349.9600 39.8169708251953
350.1100 118.542701721191
350.8688 171.957107543945
351.0755 16.7400417327881
352.6700 50.749584197998
352.7954 46.6211318969727
352.9568 130.979064941406
353.8700 19.3346271514893
354.8300 17.6194896697998
355.0400 30.9809818267822
355.1800 22.8425464630127
356.9100 63.4532127380371
359.0500 61.3060340881348
359.1500 18.6844348907471
360.2600 14.4436302185059
360.8200 16.3509540557861
361.0700 65.290901184082
361.2100 57.592342376709
362.0200 273.96142578125
362.1500 833.261474609375
362.2700 309.301879882813
363.2000 69423.296875
364.2200 16137.44140625
365.0300 117.194747924805
365.2000 2275.89404296875
366.0900 20.9818534851074
366.2600 182.932571411133
366.6376 40.7554969787598
366.9900 83.3906402587891
367.0978 69.2590026855469
367.2349 16.6647853851318
368.9500 63.609561920166
370.7755 32.8164749145508
370.9000 42.9479484558105
371.0300 42.4970741271973
373.1500 19.4188098907471
377.2200 22.1198635101318
377.3000 42.6558952331543
384.8000 21.9479389190674
386.8700 18.9526596069336
387.9500 14.3178548812866
395.1300 19.454662322998
400.7850 11.2857151031494
401.0600 15.4153499603271
409.0400 36.632869720459
430.7000 16.1700859069824
434.8300 17.1045055389404
444.9100 16.0514011383057
468.9300 21.955207824707
