#"+EI Scan (rt: 2.655-2.713 min, 11 scans) R1M1.D  Subtract "
#Point,X(Thompsons),Y(Counts)
40.1093 3269.11791992188
41.0795 94195.3203125
42.0904 12197.3125
43.0888 69264.125
44.0404 7271.73681640625
45.0217 3251.0888671875
45.9442 35.2129135131836
46.0717 1050.83923339844
47.0493 16466.91796875
47.9400 156.110305786133
48.0490 335.693054199219
48.8461 83.5850372314453
48.9521 59.6877670288086
49.0800 43.8856887817383
50.0380 2594.91357421875
51.0361 8168.95849609375
52.0190 3080.36474609375
53.0612 8236.919921875
54.0581 5122.07275390625
55.0789 46609.59375
56.0578 16382.7197265625
57.0441 2850.98046875
58.1180 2073.02124023438
59.0386 55877.00390625
60.0390 4080.5283203125
61.0512 5042.806640625
62.0189 7614.29296875
63.0303 10737.12890625
64.0304 5254.04833984375
65.0310 5618.09521484375
66.0100 1739.81372070313
67.0475 8860.078125
67.1700 177.658706665039
68.0889 4728.94580078125
69.0791 68795.546875
70.0692 18825.103515625
71.0790 31948.60546875
72.0899 12220.181640625
73.0530 11415.3017578125
74.0216 2464.58056640625
75.0286 11277.6953125
76.0306 25796.455078125
77.0381 44700.0625
78.0300 8689.2568359375
79.0134 2002.32507324219
79.9700 203.783554077148
80.0805 351.629669189453
80.2100 78.5779342651367
80.9900 2535.50830078125
82.0237 1867.14196777344
83.0287 5490.62646484375
83.7928 27.6373405456543
84.0443 1662.53894042969
85.0282 2532.15869140625
85.1343 331.620483398438
85.9200 214.004821777344
86.0390 2132.79370117188
86.1200 235.546188354492
87.0000 652.400634765625
87.0500 8611.6435546875
88.0301 67236.1796875
89.0300 53018.60546875
90.0200 121247.5078125
91.0396 17187.740234375
92.0204 4195.81884765625
93.0248 260.275390625
93.1600 741.547302246094
93.5800 66.168098449707
93.7600 152.756301879883
93.8894 208.874237060547
94.0123 114.520645141602
94.1649 7.35324096679688
94.9340 191.817276000977
95.0235 373.921417236328
95.1400 155.904754638672
96.0135 879.187133789063
97.0457 1273.55419921875
97.1768 37.5893402099609
98.0593 16129.5546875
99.0607 2127.64282226563
99.9738 177.039260864258
100.0804 1844.66320800781
100.9340 224.089752197266
101.0402 5345.7763671875
102.0394 64184.50390625
103.0396 184798.984375
104.0400 57944.12109375
105.0400 6927.54150390625
106.0520 259.068634033203
106.2400 1086.11706542969
106.4200 489.686798095703
106.6800 592.075256347656
106.7744 293.494354248047
106.9482 137.999282836914
107.2038 183.563934326172
107.3600 102.394241333008
107.4700 211.897689819336
107.6100 500.038696289063
107.7300 168.57600402832
107.8956 59.9419441223145
108.1800 151.167343139648
109.0100 2092.42846679688
110.0173 420.61572265625
110.1081 162.062881469727
110.9658 225.02668762207
111.0900 326.728973388672
111.8200 17.8509559631348
111.9515 141.256362915039
112.1215 29.0761833190918
112.2900 48.2170753479004
112.7292 41.3737335205078
113.1890 142.337295532227
113.3800 153.761489868164
113.6900 858.674438476563
113.7898 1558.79736328125
113.9221 2037.82092285156
115.0262 7863.66650390625
116.0281 14310.966796875
117.0292 64430.84375
118.0396 20851.404296875
119.0240 4964.462890625
119.0800 989.321350097656
119.9308 356.777709960938
120.0500 565.065612792969
120.9979 3909.06640625
121.7170 30.7200775146484
121.8568 28.5703678131104
122.0100 485.5205078125
122.1400 72.5232467651367
122.2900 58.0459327697754
122.9712 843.407592773438
123.8796 8.24921035766602
124.1500 43.4172515869141
124.6400 58.6085166931152
125.0700 456.034484863281
125.9454 200.034362792969
126.0600 375.493865966797
126.2400 63.6722068786621
127.0083 2846.64013671875
128.0609 9907.37109375
129.0390 81184.609375
130.0597 109016.0625
131.0500 245274.484375
132.0400 33047.2109375
133.0085 4340.0009765625
134.0200 111.492950439453
134.1600 298.291381835938
134.2900 211.356674194336
134.9828 1222.705078125
135.0935 119.123901367188
136.0377 282.317443847656
136.0900 385.415496826172
137.0123 15521.037109375
138.0023 1685.38793945313
139.0400 1142.16125488281
140.0531 1080.88537597656
140.9842 2404.48681640625
142.0475 6731.63818359375
143.0561 18216.236328125
144.0567 38003.546875
145.0399 709562.125
146.0499 70627.1953125
147.0152 5685.4990234375
147.8800 50.1883506774902
148.0211 995.142272949219
148.9163 147.121932983398
149.0300 2340.50561523438
149.8400 135.287170410156
149.9837 81.0321655273438
150.1400 118.187004089355
151.0143 1020.87933349609
151.9702 356.564208984375
152.1200 892.626770019531
152.6700 90.469123840332
152.9600 294.628234863281
153.0731 404.563537597656
154.0584 1968.66369628906
155.0244 6834.92529296875
156.0493 10306.783203125
157.0551 19760.4609375
158.0591 34496.015625
158.9957 15083.724609375
160.0192 3926.55590820313
161.0478 11832.29296875
161.9190 5.21127319335938
162.0409 1725.54138183594
162.9490 1067.8447265625
163.6400 19.5069351196289
163.9562 274.662292480469
164.1300 124.757858276367
164.9544 1007.99139404297
165.0810 199.350051879883
165.8742 55.8594436645508
166.0168 251.267074584961
166.1961 56.6363372802734
166.9028 170.312927246094
167.0100 1591.67602539063
168.0514 3138.8046875
169.0693 5520.6328125
170.0570 4406.60986328125
171.0699 33000.890625
172.0602 10688.0673828125
173.0693 5412.16455078125
174.0798 104350.796875
175.0600 66574.3515625
176.0600 9591.0537109375
177.0396 79390.46875
178.0400 8617.505859375
178.9969 824.688720703125
179.1700 112.160911560059
179.7843 4.97489929199219
179.9655 341.695526123047
180.1191 20.394287109375
181.0400 1495.64306640625
181.8569 175.920043945313
182.0380 866.708679199219
182.2042 56.8002052307129
182.9639 221.236602783203
183.0909 2989.97265625
184.0689 5126.1591796875
185.0800 28253.310546875
186.0687 10202.9990234375
187.0009 1212.85229492188
187.0700 3115.46850585938
187.9551 58.0625495910645
188.0400 1725.6484375
188.9373 513.089599609375
189.0500 705.996337890625
189.6500 18.7217674255371
190.0384 284.529449462891
190.1611 63.5882720947266
190.9494 601.284851074219
191.0480 227.560913085938
191.7800 35.6897010803223
191.9603 76.9000930786133
192.0679 210.265869140625
192.1900 81.5283279418945
193.0000 537.323608398438
193.9300 211.737869262695
194.0504 7.92256546020508
194.9686 984.784790039063
195.9342 84.0978851318359
196.0766 542.984375
196.9100 499.596954345703
196.9763 778.710815429688
197.1400 156.260040283203
198.0500 1291.83483886719
198.1600 265.699676513672
199.0600 9456.9501953125
200.0699 5754.53955078125
201.0400 4679.3662109375
202.0498 1559.80578613281
202.9634 462.155059814453
203.0896 6399.4541015625
204.0800 1860.71960449219
205.0689 4849.22802734375
206.0174 298.342468261719
206.1200 1458.40026855469
207.0175 1143.75439453125
207.8800 156.338912963867
208.0201 292.49853515625
208.9802 506.659240722656
210.0187 539.149230957031
210.1200 949.237487792969
211.0191 4163.98779296875
212.0595 3684.73168945313
213.1099 110066.4140625
214.1098 19394.759765625
215.0057 12084.6767578125
216.0600 7783.57177734375
216.9763 1585.95043945313
217.7500 39.4923934936523
217.8885 117.311904907227
217.9866 280.845367431641
218.1800 60.6962432861328
218.9624 2561.458984375
220.0493 2066.0234375
220.9825 914.537780761719
221.7553 80.0475769042969
221.9371 31.3331298828125
222.0400 97.7666015625
222.1500 75.6643829345703
222.9233 578.347412109375
223.8800 166.073760986328
224.0359 95.9266891479492
224.1300 94.1050720214844
224.6500 37.3645286560059
224.9469 292.669403076172
225.0700 249.998718261719
225.7600 43.3112564086914
225.9304 309.871551513672
226.0808 417.702758789063
226.8654 102.52571105957
226.9986 577.146240234375
227.1798 108.51171875
228.1191 11148.9443359375
229.0828 4627.1630859375
230.1021 1266.95727539063
230.2100 728.333251953125
231.0992 18476.5
233.1193 1502948.25
234.1200 228210.59375
235.1094 21056.65625
235.9400 178.056076049805
236.0266 481.767700195313
236.1000 811.070922851563
236.9760 4584.18359375
237.9622 934.463745117188
239.0200 871.631652832031
239.7900 133.678634643555
239.9369 101.982475280762
240.0507 138.068893432617
240.9729 673.743591308594
242.0204 719.455322265625
242.9585 367.262847900391
243.0900 171.874664306641
243.9800 339.824615478516
244.1100 769.5361328125
244.9189 342.296875
245.0710 593.830749511719
246.1097 6472.34033203125
247.1499 8785.8857421875
248.1199 4482.01318359375
249.1398 164606.453125
250.1200 25354.4921875
251.0153 10.1546249389648
251.1200 2353.90478515625
251.8600 112.235008239746
252.1000 199.860610961914
252.2500 32.4688415527344
252.9438 233.291061401367
253.1400 30.9197158813477
253.7100 20.7960586547852
253.8700 41.9473114013672
254.0200 124.010696411133
254.1700 138.642211914063
254.8184 149.970657348633
255.0173 21.1517333984375
255.9500 159.069046020508
256.0990 615.707763671875
256.2300 142.936706542969
256.9277 325.204711914063
257.0980 135.960693359375
257.9572 54.4703712463379
258.1200 102.031219482422
258.3800 31.4174690246582
258.8768 54.9230690002441
259.0315 119.802749633789
259.1835 45.8578224182129
260.0900 1119.56481933594
260.2016 38.6400985717773
261.0688 557.765869140625
261.1500 11208.109375
262.1400 2687.74487304688
262.7318 12.4666175842285
262.8931 54.1109046936035
263.0600 285.221313476563
263.2400 105.264427185059
263.9300 61.204174041748
264.0500 17.8894634246826
264.1900 57.2800064086914
264.5900 16.4426612854004
265.0400 145.173126220703
265.1338 102.7734375
265.9200 15.7828798294067
266.1600 88.9336853027344
266.7400 45.5179901123047
267.0000 148.082824707031
267.1007 42.6946563720703
267.8400 18.2374954223633
267.9873 207.390853881836
268.1196 26.0652141571045
268.7875 36.7590980529785
268.9678 284.71435546875
270.0600 351.741760253906
270.1500 684.169494628906
271.0085 525.533325195313
272.0700 497.249298095703
272.1685 969.467956542969
273.0385 1095.51770019531
274.0997 803.728637695313
274.1600 2000.76049804688
274.9701 789.028747558594
275.0900 591.672424316406
275.7000 36.5702705383301
276.0500 409.154510498047
276.1700 246.006591796875
276.9900 767.255249023438
277.8100 56.16552734375
277.9037 143.560546875
278.0748 214.770721435547
278.2300 20.5671577453613
279.0500 292.609802246094
279.1600 57.8484535217285
280.0500 137.557403564453
280.2000 15.1472864151001
281.0538 333.121276855469
281.9433 118.839324951172
282.0900 256.676971435547
282.7702 1.25594329833984
282.9417 153.041320800781
283.0900 176.575775146484
284.1886 2980.36108398438
285.0788 1949.43286132813
286.1399 2507.01416015625
287.1300 726.739318847656
288.1355 10445.181640625
289.1075 19599.8984375
290.1043 3515.541015625
290.9500 492.736633300781
291.0787 553.760314941406
291.9546 213.245178222656
292.1000 119.762130737305
292.9794 1791.37390136719
293.9352 54.8067626953125
294.0300 433.084289550781
294.8510 66.7207336425781
294.9740 194.597137451172
295.1000 201.144439697266
295.6886 37.7458839416504
295.9437 14.2007312774658
296.1400 211.593551635742
296.8900 432.741088867188
296.9608 136.387145996094
297.7600 32.7211952209473
297.9490 131.748077392578
298.2700 36.2401084899902
298.9239 383.051574707031
299.5400 21.2937088012695
299.7300 35.2549285888672
299.8486 23.84592628479
300.0306 105.238372802734
300.1467 292.110961914063
300.8788 294.645629882813
300.9958 9.70572662353516
301.0984 75.3147506713867
302.0049 49.457649230957
302.1500 2787.65991210938
302.9991 132.503875732422
303.1595 4068.63989257813
304.1899 671308.8125
305.1900 128635.6796875
306.1900 14104.82421875
307.0908 522.245849609375
307.1900 709.620544433594
307.8000 41.7711944580078
308.0200 59.3654747009277
308.2600 44.7605094909668
308.9234 12.1486034393311
309.1000 88.8650512695313
310.0800 20.6238327026367
310.8588 99.830680847168
310.9850 1.08116149902344
311.1300 165.896728515625
311.6900 48.6310691833496
311.8800 25.5004138946533
312.0206 30.2370319366455
312.1900 17.9739208221436
312.3400 17.2272663116455
312.8300 34.6154823303223
313.1308 21.7602386474609
314.0300 40.4504776000977
314.2600 16.6307964324951
314.8995 88.356201171875
315.0814 108.136100769043
316.1295 5573.4990234375
316.8800 24.0480175018311
317.1286 1124.66589355469
317.2112 262.660583496094
318.1000 86.5406799316406
318.2100 323.146850585938
318.8100 23.4039478302002
319.0177 151.19596862793
319.1600 69.2670059204102
320.0608 174.430603027344
320.1601 13829.8017578125
321.1599 13922.4619140625
322.1400 2350.603515625
323.0900 398.448516845703
324.0800 25.7373638153076
324.8500 20.9475116729736
324.9600 26.4758014678955
326.8800 90.6043930053711
327.0900 16.0669422149658
327.8100 27.0236206054688
327.9700 91.6298522949219
328.1000 24.1193561553955
328.6400 17.927173614502
328.7800 19.7422847747803
328.9232 13.9152145385742
329.0900 159.685592651367
330.0200 203.094284057617
330.1600 1158.69702148438
330.2500 115.555351257324
331.1600 7057.08544921875
332.0000 107.955879211426
332.1400 1280.89135742188
332.1900 2342.82348632813
332.9525 51.711799621582
333.1500 715.063842773438
334.0400 184.606704711914
334.1900 483.865051269531
334.6100 18.6607608795166
334.8700 48.1376571655273
335.0500 202.877746582031
335.1526 9.89287376403809
335.3100 23.8978214263916
335.9800 18.3248405456543
336.8704 5.23674583435059
337.0586 26.6774406433105
338.8408 26.284309387207
341.0500 15.2933015823364
341.3000 15.3570222854614
341.8700 28.6437702178955
342.0900 198.403228759766
342.2300 103.859596252441
342.3200 135.172210693359
343.1200 405.605010986328
343.2400 258.490325927734
344.2188 186.860809326172
344.5100 19.8181343078613
345.0146 191.61865234375
345.1800 117.714302062988
346.0000 84.5805587768555
346.2100 507.271484375
346.3200 40.318790435791
347.0600 119.238746643066
347.1700 96.7187194824219
348.0700 496.982299804688
348.1500 878.861694335938
348.3200 307.508850097656
348.8900 90.5036773681641
349.0424 131.397827148438
349.1700 304.128692626953
349.8100 45.6933097839355
349.9800 80.5921249389648
350.1300 65.7013473510742
350.8400 25.1360836029053
351.0500 77.2865524291992
351.8800 30.3447456359863
352.6400 27.8273849487305
352.8072 8.39487457275391
352.9358 133.724548339844
353.9100 15.0247507095337
354.8079 1.52586936950684
355.0800 37.7020492553711
356.0400 13.9127998352051
356.8800 37.1990203857422
357.0300 0.0534067153930664
357.1700 16.1923751831055
357.9600 14.8197059631348
358.7600 18.3849487304688
360.9400 17.3961086273193
361.0600 40.8678016662598
361.2100 32.2060279846191
362.1800 1575.60119628906
363.2200 77505.6328125
364.1200 252.040222167969
364.2200 17566.638671875
365.1700 796.200378417969
365.2200 1555.90747070313
366.0500 114.890007019043
366.2400 139.685302734375
366.7800 68.0033569335938
366.9180 21.8478775024414
367.0654 58.1455688476563
367.1900 39.8503074645996
367.9700 35.9468955993652
370.9100 64.8742904663086
371.0400 95.3006286621094
372.7600 21.9536151885986
374.7700 29.8268909454346
374.8800 23.7437973022461
375.0600 26.1929206848145
377.0600 54.5448989868164
377.2200 20.1283226013184
377.7800 20.115966796875
378.3200 15.2296571731567
379.0800 17.5320262908936
379.1900 14.6371955871582
383.1400 15.1193857192993
387.0243 0.553417205810547
388.9800 14.4705476760864
400.9300 44.0062370300293
401.0763 59.4940986633301
401.9200 14.6740636825562
404.8800 14.8363733291626
405.1300 21.6959590911865
408.9300 51.318603515625
410.5200 29.3707046508789
413.8400 13.9812965393066
448.8300 15.4990539550781
464.8400 28.7288494110107
523.1000 16.5839366912842
