#"+EI Scan (rt: 6.426-6.531 min, 19 scans) R4M1.D  Subtract "
#Point,X(Thompsons),Y(Counts)
40.0715 444.201965332031
41.0796 20348.412109375
42.0598 2675.79272460938
42.9130 27.3025283813477
43.0596 5887.49658203125
44.0414 8418.8369140625
44.9749 309.239196777344
45.0534 507.257965087891
45.9100 116.458961486816
46.0259 101.333160400391
46.1800 13.8771743774414
46.9415 76.4249420166016
47.0393 2767.28173828125
47.8600 8.48077869415283
48.0200 22.3761177062988
48.1500 8.84769725799561
48.8114 4.51803588867188
48.9679 43.9416198730469
49.1347 30.0216789245605
49.9591 403.506683349609
51.0245 994.515625
51.9043 89.5302047729492
51.9850 80.10986328125
52.0700 342.706481933594
52.9350 202.8623046875
53.0498 1267.03869628906
53.9842 173.115600585938
54.0903 407.610076904297
55.0559 3504.18237304688
56.0160 520.281982421875
56.0721 602.091186523438
56.1800 34.2556419372559
57.0793 12439.05078125
57.9667 321.964294433594
58.0841 591.58642578125
59.0359 2987.96875
60.0500 237.039428710938
60.8127 23.8671588897705
61.0399 1003.5234375
61.7475 4.18848705291748
61.9600 628.528991699219
62.0500 123.940353393555
62.9615 702.970520019531
63.0442 593.251159667969
63.8339 70.6519470214844
63.9275 114.61767578125
64.0691 248.600799560547
64.3800 15.7222108840942
64.8632 81.5024642944336
64.9610 286.70263671875
65.0538 392.019836425781
65.7000 12.2304582595825
65.8200 40.9455108642578
65.9394 68.5388565063477
66.0300 163.781936645508
66.1484 3.10347366333008
66.9690 624.075134277344
67.0594 544.142822265625
67.9884 256.189392089844
68.0997 358.116241455078
69.0681 7977.1640625
70.0296 1135.46459960938
70.1001 754.2548828125
70.9444 174.08625793457
71.0729 555.974548339844
71.8700 23.2890186309814
72.0065 111.441925048828
72.1278 180.336090087891
73.0347 1694.44128417969
73.9385 234.850555419922
74.0241 205.80078125
74.9769 665.484802246094
75.0520 827.750122070313
75.9928 728.72412109375
76.0678 918.985534667969
77.0200 4907.875
78.0300 2303.25439453125
78.9843 384.64111328125
79.9140 81.4257507324219
80.0475 136.044647216797
80.9856 720.552978515625
81.9415 275.515289306641
82.0636 70.5693664550781
82.1400 57.5703887939453
82.9731 638.689270019531
83.0820 339.827484130859
83.8600 57.9535369873047
84.0200 200.404907226563
84.0900 166.784362792969
84.6200 16.1866588592529
84.8690 128.799880981445
85.0238 137.135681152344
85.1700 73.3793716430664
85.9392 379.060241699219
86.0800 494.843597412109
86.8241 21.7079391479492
86.9571 289.538391113281
87.0397 630.525573730469
87.9899 1391.30737304688
88.0600 1044.18823242188
88.9057 150.765121459961
89.0202 8428.447265625
89.9300 328.780364990234
90.0421 1048.67016601563
91.0328 989.484985351563
91.8166 37.9678344726563
92.0480 92.7026901245117
92.1800 28.8947238922119
92.5200 10.7287111282349
92.8746 15.3227844238281
93.0067 140.961074829102
93.9150 69.536979675293
94.0502 44.3553924560547
94.8359 39.8772392272949
94.9963 109.70679473877
95.2400 18.5186634063721
95.8487 23.8620452880859
96.0372 160.549407958984
96.5387 10.1886863708496
96.9175 154.100128173828
97.1800 48.0782279968262
97.8310 18.3152122497559
97.9586 166.880935668945
98.1283 50.1147842407227
98.8780 66.0859909057617
98.9799 426.755737304688
99.1124 108.408515930176
99.9276 210.182754516602
100.0402 557.019348144531
101.0300 4099.25927734375
102.0299 9819.7958984375
103.0292 4367.74755859375
103.8639 107.297103881836
103.9792 681.288757324219
104.0697 114.729125976563
104.5600 13.7445278167725
104.8637 32.5177154541016
105.0365 206.583587646484
105.8260 68.1297302246094
105.9370 117.956550598145
106.0509 54.3388938903809
106.2052 25.3010597229004
106.7600 68.9169311523438
106.9288 61.125316619873
107.7900 28.7263603210449
107.8927 51.9023971557617
108.0214 26.288158416748
108.1684 14.8865642547607
109.0025 587.939270019531
109.7757 6.45499610900879
109.9000 125.37043762207
110.9657 198.801284790039
111.1085 10.9075660705566
111.8100 10.5091829299927
111.9100 94.310791015625
112.0200 286.010406494141
112.1500 14.1363430023193
112.3700 21.8625621795654
112.9700 63.6809539794922
113.0512 403.692230224609
113.1600 202.430648803711
113.9200 320.984466552734
114.0401 3763.4482421875
115.0199 13849.1416015625
116.0300 25109.201171875
117.0165 4616.72265625
118.0300 1626.22583007813
118.1377 162.969802856445
118.9349 91.7572784423828
119.0821 135.807312011719
119.7700 51.4729118347168
119.9927 7.42558288574219
120.1300 73.2738418579102
120.2700 8.89561462402344
120.9200 97.7010269165039
120.9977 39.5556793212891
121.1263 140.141616821289
121.3900 19.5555305480957
121.5100 40.9376220703125
121.6337 52.2511596679688
121.8000 12.2366800308228
121.9174 31.1539878845215
122.1260 9.04617214202881
122.8600 57.2061386108398
122.9757 45.7353057861328
123.8201 12.9277362823486
123.9466 34.703971862793
124.0600 53.7150573730469
124.7400 87.4514770507813
124.8420 12.060676574707
124.9436 68.2158355712891
125.8227 32.4685821533203
125.9900 181.48356628418
126.0900 92.3726196289063
126.2800 17.231388092041
126.9626 1023.83679199219
127.0815 464.767547607422
128.0299 11552.642578125
129.0399 20257.90234375
130.0501 16430.611328125
131.0054 2503.05102539063
131.0776 341.118469238281
131.7916 36.7554512023926
131.9907 345.196319580078
132.1000 404.234436035156
132.8259 8.88990783691406
132.9804 396.201293945313
133.8784 28.2311878204346
133.9700 119.281814575195
134.1025 23.2092170715332
134.8976 327.071838378906
135.0028 84.7827987670898
135.6027 6.43488502502441
136.0260 299.361267089844
136.1654 11.9659118652344
137.0100 5191.8505859375
138.0052 525.786071777344
138.9850 642.245544433594
139.7834 21.7178001403809
139.8904 18.9659004211426
140.0192 821.441528320313
140.9714 1038.03955078125
141.0378 445.20556640625
141.9224 254.033508300781
142.0498 2310.95678710938
143.0298 19684.83984375
144.0300 72601.203125
144.8923 81.8790054321289
145.0296 8362.6826171875
145.9303 309.433227539063
146.0300 688.47509765625
146.7832 40.099853515625
146.9574 151.474899291992
147.0947 6.11453104019165
147.8200 115.291603088379
147.9795 442.767120361328
148.9333 82.9478988647461
149.0490 123.57820892334
149.8400 8.37748432159424
150.0183 78.9317321777344
150.1400 47.3671760559082
150.3200 11.3695526123047
151.0200 330.978271484375
151.8600 93.710578918457
151.9469 60.5909729003906
152.0421 185.359313964844
152.2400 19.5197296142578
152.6817 34.2020606994629
152.9473 46.3517303466797
153.0355 500.009857177734
154.0200 744.895385742188
154.0706 1345.56506347656
155.0196 5449.37451171875
156.0400 4267.7978515625
157.0231 5691.2890625
158.0481 2999.7470703125
158.9700 2201.9130859375
159.9840 607.924072265625
160.7910 90.7517547607422
160.9378 72.5913696289063
161.9000 57.9134712219238
161.9800 111.329704284668
162.0900 12.9379215240479
162.9239 298.689270019531
163.7488 35.4956893920898
163.8901 71.8249053955078
164.7430 34.4626731872559
165.0055 171.90478515625
165.2300 10.3744316101074
165.7455 51.8708190917969
165.9683 248.18342590332
166.0772 58.6295890808105
166.9800 1442.36499023438
167.0357 13.6646118164063
167.9765 787.214233398438
168.0689 734.046020507813
168.9307 337.093505859375
169.0669 696.131042480469
169.9133 55.2840347290039
170.0499 5475.15380859375
171.0291 1988.08850097656
171.8528 78.4518508911133
171.9900 267.52294921875
172.0700 507.811676025391
173.0499 7542.59912109375
173.8183 27.3296947479248
174.0000 647.772766113281
174.1000 1052.91662597656
174.8500 82.4280395507813
174.9983 49.3839569091797
175.1300 95.2550964355469
175.8500 65.0744400024414
175.9903 660.796752929688
176.7676 13.3249187469482
176.8984 143.388000488281
176.9954 15.6103210449219
177.8121 9.40056228637695
177.9488 86.3277130126953
178.1100 35.4308776855469
178.6900 33.5162315368652
178.8185 79.4878768920898
179.0030 96.6571350097656
179.1700 8.38613605499268
179.9318 241.345123291016
180.0803 179.963882446289
180.9434 313.265899658203
181.0400 178.805877685547
181.9438 255.986557006836
182.0695 449.226440429688
183.0106 873.418884277344
183.1500 76.6551818847656
183.9867 282.865966796875
184.0702 2253.99658203125
184.9800 770.5400390625
185.0506 932.484802246094
185.7973 19.9179840087891
185.9881 562.772521972656
186.1200 94.5277786254883
186.8451 137.161727905273
186.9770 224.544479370117
187.8700 43.546459197998
188.0297 96.5783920288086
188.2200 11.7364377975464
188.8643 28.1032104492188
188.9591 129.416519165039
189.6500 9.69924163818359
190.0700 8.22308826446533
190.1700 18.6107482910156
190.8285 64.8967819213867
190.9907 41.2420959472656
191.7560 21.6399593353271
191.8721 40.0215454101563
192.0051 75.6670074462891
192.1800 14.9274530410767
192.8733 190.746673583984
192.9829 84.0630874633789
193.8371 16.1271858215332
193.9578 67.6665802001953
194.0600 138.009246826172
194.9756 616.776062011719
195.1100 78.7918014526367
195.8860 144.837432861328
196.0107 254.962127685547
196.9569 569.466552734375
197.9779 378.149627685547
198.0598 861.633422851563
198.9681 1100.56896972656
199.8845 143.616165161133
200.0150 353.712951660156
200.1300 75.3051910400391
200.9068 272.310363769531
201.0311 92.1243209838867
201.8444 75.0738372802734
202.0983 195.443252563477
202.2300 12.2649965286255
202.9948 361.769409179688
203.1712 45.6626968383789
203.9493 218.605560302734
204.0800 1012.71856689453
205.0800 2731.89184570313
205.9272 2.81078243255615
206.0799 1416.23852539063
206.2000 89.072998046875
207.1029 321.364776611328
207.6600 18.7667694091797
207.9932 115.22241973877
208.1300 39.8131866455078
208.7541 90.7559432983398
209.0568 95.4693756103516
209.1575 33.1825790405273
209.5500 14.1718826293945
209.7868 65.2057723999023
209.9707 155.572906494141
210.0600 306.462310791016
210.9900 1226.47436523438
212.0774 4916.9638671875
213.0714 1340.64758300781
213.8800 59.5760650634766
214.0236 507.961029052734
214.1262 19.5098304748535
214.9856 2533.6015625
215.9736 632.3818359375
216.9572 699.176513671875
217.6400 14.3334159851074
217.8737 59.865535736084
218.0117 60.4137344360352
218.9542 803.932312011719
219.6915 5.83062648773193
219.8562 148.324005126953
220.9776 38.3258361816406
221.0500 52.4238471984863
221.8387 54.9625053405762
222.0759 18.7186450958252
222.8679 108.534805297852
222.9890 62.0204048156738
223.1900 18.5321826934814
223.5200 27.2378692626953
223.8756 33.8762397766113
224.0167 37.7424468994141
224.1400 20.6792755126953
224.7014 15.5492477416992
224.8262 33.2086791992188
224.9500 110.633392333984
225.0847 72.1997680664063
225.2800 9.51954936981201
225.7300 21.0680732727051
225.8687 35.2804298400879
225.9900 150.972045898438
226.2200 72.8892593383789
226.4600 14.8102016448975
226.7000 40.424488067627
226.8137 54.7105712890625
226.9000 137.883972167969
227.0258 196.767044067383
227.3200 77.8188705444336
227.6300 20.9748992919922
227.8300 82.898063659668
227.9305 181.734390258789
228.1005 220.398544311523
228.3400 81.9071350097656
229.0218 751.923706054688
229.1839 106.965827941895
230.1000 5424.14697265625
231.0791 4681.8232421875
232.1100 368703.375
233.0927 59642.0234375
234.0885 6176.14697265625
234.9325 77.2553405761719
235.0398 335.538055419922
235.6700 23.2271499633789
235.9820 113.011291503906
236.1600 51.1500511169434
236.9756 1391.21142578125
237.7900 51.7791023254395
237.9349 87.15625
238.0330 219.995712280273
238.7100 65.0101013183594
238.8732 227.833511352539
238.9901 5.61947631835938
239.1091 86.4723129272461
239.9622 181.671447753906
240.9256 55.7154541015625
241.0502 1114.27490234375
241.1700 79.4014358520508
241.9066 178.469741821289
242.0794 86.8174591064453
242.1800 72.4352264404297
242.8750 43.2609939575195
243.0536 118.578132629395
243.2064 18.2446765899658
243.8300 8.52587699890137
243.9620 87.1376190185547
244.0900 68.3780746459961
244.1800 87.3596420288086
244.8376 120.237854003906
244.9596 53.9742698669434
245.2300 9.33660411834717
245.7400 18.5446548461914
245.9200 72.2789840698242
246.0800 231.162887573242
246.6800 8.81365585327148
246.9322 37.2235565185547
247.1178 386.931884765625
248.1200 2492.759765625
248.2300 43.0251579284668
248.9054 26.2041473388672
249.0400 329.045135498047
249.1700 200.615081787109
249.8000 12.8578424453735
249.9800 77.7316970825195
250.0700 22.5338745117188
250.8717 21.5559692382813
250.9538 30.0354900360107
252.0300 14.5492134094238
252.2300 11.4072227478027
252.8145 1.53240203857422
252.9498 170.3251953125
253.0600 41.8075065612793
253.8172 15.9056243896484
253.9826 8.66960906982422
254.0900 46.199649810791
254.7446 17.605052947998
254.9028 51.3212776184082
255.0500 116.484115600586
255.2000 36.188793182373
255.5400 8.12409019470215
255.8700 19.6395645141602
256.0394 10.6447267532349
256.7405 37.3627624511719
256.9098 88.9920272827148
257.0210 43.2242622375488
257.1900 49.5148048400879
257.9990 148.797729492188
258.1800 70.3671493530273
258.7757 0.507484436035156
258.9277 32.8426475524902
259.1001 1233.51513671875
259.2300 26.4693088531494
259.9400 52.9449996948242
260.0900 4000.658203125
260.1700 330.781829833984
260.9175 54.6592559814453
261.0700 636.166259765625
261.1400 334.502044677734
261.8800 25.3750286102295
262.0100 92.9156341552734
262.1000 102.766899108887
262.2500 16.7767028808594
262.8552 10.8940391540527
263.0700 20.5684280395508
263.8500 17.51611328125
264.8100 52.5780220031738
264.9700 19.3657321929932
266.0300 96.2637634277344
266.1600 13.6874208450317
266.6800 12.2130355834961
266.8864 137.349685668945
267.0012 126.014129638672
267.1716 40.5157012939453
267.9300 144.372756958008
268.0800 313.712799072266
268.8235 38.2442817687988
268.9369 38.0748596191406
269.0684 171.164276123047
269.9606 92.0011749267578
270.1000 114.252044677734
270.3000 23.1281242370605
270.8866 201.060043334961
271.0037 63.0768280029297
271.8512 63.9986724853516
272.0322 91.8062973022461
272.8205 153.407043457031
273.0494 72.0114822387695
273.8483 65.3316879272461
273.9850 33.0238418579102
274.9400 102.359252929688
275.0120 40.8175888061523
275.7000 9.05069065093994
275.9300 61.5089149475098
276.6500 47.312126159668
276.9247 181.645965576172
277.0578 48.6893882751465
277.6984 30.1782398223877
277.8896 19.6400718688965
278.0129 2.70094180107117
278.7141 7.17893981933594
278.8329 72.4047775268555
278.9325 58.6854400634766
279.0400 10.6080808639526
280.0000 62.436710357666
280.8401 82.0016250610352
281.7000 18.0676021575928
282.0654 43.0328330993652
282.7300 14.0236625671387
282.8613 16.6024208068848
282.9832 36.8611221313477
283.1900 40.4703598022461
283.8300 25.1125679016113
283.9400 10.7637777328491
284.0700 95.7452392578125
284.1900 20.0188961029053
284.9725 196.944946289063
285.0613 578.266235351563
286.1075 3137.52954101563
286.9761 127.537521362305
287.1094 5760.7265625
288.1100 18515.98046875
289.0374 3585.96728515625
289.9270 59.9255065917969
290.0845 506.303253173828
290.7700 13.7565574645996
291.0300 215.774642944336
291.1600 17.5571937561035
291.7875 8.92856407165527
291.9436 63.7097434997559
292.1400 9.00734996795654
292.9319 435.398376464844
294.0100 174.562026977539
295.0300 120.616271972656
295.6975 4.9980640411377
295.9697 25.8108139038086
296.1100 22.9609775543213
296.8033 90.3897018432617
296.9295 186.649032592773
297.1800 34.0619201660156
297.3200 17.8354053497314
297.6847 12.6366205215454
297.7900 9.18983459472656
297.8852 97.8364715576172
298.9536 131.98371887207
299.0900 49.5378074645996
299.8600 10.8064556121826
300.0100 64.6590576171875
300.1900 69.6135711669922
300.2800 18.1130924224854
300.8633 8.57095813751221
301.0797 253.528900146484
301.2000 23.5391387939453
301.8000 16.3258056640625
302.7000 13.5235290527344
302.8300 16.8555355072021
302.9784 196.67756652832
303.1281 247.467788696289
303.8900 46.8566703796387
304.0200 191.560012817383
304.1800 197.071044921875
305.0598 953.687255859375
305.1300 1813.49731445313
306.0200 140.823913574219
306.1300 372.743896484375
306.2900 11.376633644104
306.8500 31.1276702880859
307.0459 207.176452636719
307.8953 24.8128414154053
308.0600 17.9033451080322
308.9200 30.9097652435303
309.1900 10.6163444519043
310.0600 8.84532642364502
310.2400 9.60428810119629
310.9000 85.1356811523438
311.1400 35.5435829162598
312.0200 9.48915958404541
312.1700 85.9254455566406
312.8400 24.1677436828613
314.6962 8.57524108886719
314.9200 106.943305969238
315.0488 123.335037231445
315.2000 57.421012878418
316.0200 60.642162322998
316.1100 129.863952636719
316.2700 11.4829654693604
317.1700 11264.4140625
318.1400 1411.66345214844
318.2000 1626.48046875
318.9721 18.9076099395752
319.0900 359.960327148438
319.2000 140.440383911133
322.2200 9.0085620880127
322.8600 12.5981369018555
322.9800 13.7235250473022
323.1200 57.9695625305176
323.2500 10.780665397644
324.0800 69.8266067504883
324.2800 21.1396255493164
324.9500 21.172061920166
325.1600 12.1265850067139
325.9200 8.60774803161621
326.0521 7.27373504638672
326.1700 32.6256103515625
326.3000 21.8532733917236
326.8837 41.2959327697754
327.0400 57.8122444152832
327.2000 14.0835647583008
328.0500 124.392425537109
328.1900 242.562957763672
329.1300 1826.23022460938
329.2200 256.953979492188
330.0100 40.7340850830078
330.1300 174.267807006836
330.2000 210.942581176758
330.8742 12.7538757324219
331.0200 74.0772857666016
331.8500 9.57701873779297
332.7868 17.5689945220947
333.0300 9.13426399230957
335.0400 29.2917957305908
340.5600 8.48027610778809
340.8600 10.8214159011841
340.9900 8.64304351806641
341.1300 42.6935768127441
342.1000 10.0658340454102
343.1600 1234.66589355469
344.0100 55.6925506591797
344.1700 1417.83288574219
344.9110 13.6721820831299
345.1300 323.673797607422
345.2900 45.2773132324219
346.0600 144.662521362305
346.1900 241.788040161133
346.3400 40.0328636169434
347.1100 38.2160720825195
347.2200 34.2646980285645
348.6900 10.314058303833
348.8466 29.6722259521484
348.9915 70.59326171875
349.7200 8.34145641326904
350.8000 10.4498920440674
352.8162 2.13363361358643
352.9900 62.5224533081055
353.1200 11.3117265701294
355.1300 11.2041110992432
355.2700 9.17598152160645
356.0700 11.3247861862183
358.9062 7.56442642211914
359.1000 8.49424171447754
360.1200 28.2422580718994
361.2100 11772.646484375
362.0800 143.828735351563
362.1900 2421.197265625
362.3100 36.8042602539063
362.9600 13.2483825683594
363.1200 221.338897705078
363.2500 176.179779052734
364.0100 19.7179546356201
366.9074 12.8169145584106
367.0309 7.3208646774292
370.7900 9.79911708831787
401.1400 15.4778623580933
