#"+EI Scan (rt: 6.403-6.508 min, 19 scans) R10M1.D  Subtract "
#Point,X(Thompsons),Y(Counts)
40.0884 364.127563476563
40.2468 42.3260383605957
41.0695 18843.189453125
42.0090 882.34326171875
42.0702 1748.83251953125
43.0700 5182.30712890625
43.1089 377.521850585938
44.0369 8311.5244140625
44.9408 174.772125244141
45.0268 517.662719726563
45.9400 88.0045318603516
46.0527 122.040252685547
47.0292 2723.35473632813
47.9400 54.8517875671387
48.1200 12.9198837280273
48.9165 1.37053298950195
49.0700 58.2755737304688
49.8981 116.371047973633
50.0000 281.061614990234
50.1066 74.4112777709961
51.0009 822.353576660156
51.8200 32.7265167236328
51.9500 281.494415283203
52.0589 126.504058837891
52.9391 71.1780700683594
53.0340 1277.50402832031
53.9700 249.786987304688
54.0600 350.82958984375
55.0598 3281.52001953125
55.8018 17.7672729492188
56.0672 942.753662109375
56.1882 62.481575012207
57.0802 12102.0693359375
57.9579 150.804397583008
58.0737 659.9873046875
58.1951 65.1746978759766
59.0300 2672.65478515625
59.8500 38.8375129699707
59.9401 133.803970336914
60.0899 21.0589122772217
60.9661 367.550628662109
61.0389 621.525451660156
61.9087 131.768539428711
61.9900 564.798034667969
62.0903 42.7023162841797
62.8100 14.2001266479492
62.9537 490.644714355469
63.0321 709.632507324219
63.7100 15.3601198196411
63.9984 308.932891845703
64.1277 68.2516479492188
64.8400 88.0373687744141
64.9700 374.217407226563
65.0380 253.602264404297
65.8796 74.3522491455078
66.0000 187.259323120117
66.9221 187.814392089844
67.0406 854.211059570313
67.8600 34.6777648925781
68.0400 197.250701904297
68.1308 403.188354492188
69.0667 7558.37158203125
69.9074 17.5689525604248
70.0500 1585.69323730469
70.1600 112.329063415527
70.9084 49.0990753173828
71.0049 220.345825195313
71.1200 384.771728515625
71.3500 14.1690626144409
71.8400 21.4348011016846
71.9891 141.074249267578
72.1957 100.903358459473
73.0400 1594.64404296875
74.0048 417.46728515625
74.0912 116.170959472656
74.9966 1439.77319335938
76.0123 1336.26721191406
76.1281 215.125183105469
77.0360 3960.36181640625
78.0319 2198.88330078125
78.8500 64.6983032226563
78.9515 83.4275512695313
79.0630 292.736022949219
79.8991 6.30493927001953
80.0000 160.05940246582
80.9810 516.07568359375
81.9470 244.713882446289
82.0803 60.219596862793
82.9209 140.952270507813
83.0419 725.707702636719
83.1600 48.4003219604492
83.8200 38.9850807189941
83.9400 189.43620300293
84.0500 174.897506713867
84.2300 20.6071834564209
84.8598 125.179946899414
84.9754 175.718612670898
85.1348 6.33095741271973
85.8911 77.620361328125
86.0201 517.460021972656
86.1300 277.298065185547
86.7731 10.9789085388184
86.9478 349.773193359375
87.0300 541.06298828125
87.8500 87.0790863037109
88.0200 1665.53869628906
88.0900 314.137603759766
89.0279 7449.3408203125
90.0112 1552.62268066406
90.9714 609.977111816406
91.0530 230.7109375
91.7100 24.6213722229004
91.8773 63.1257247924805
92.1100 78.3534317016602
92.6000 15.1087627410889
92.7110 15.5055656433105
92.9315 33.4136428833008
93.0831 16.991828918457
93.9011 27.9245891571045
94.0549 21.3150959014893
94.1500 27.6416015625
94.9261 21.9851188659668
95.0832 55.537109375
95.1863 36.1295623779297
95.4000 8.71770858764648
95.6420 9.21283626556396
95.7666 16.4116840362549
95.9493 179.018371582031
96.0400 93.4391632080078
96.8006 6.37711334228516
96.9318 113.748069763184
97.0333 122.924774169922
97.8000 39.1874237060547
97.9457 127.222877502441
98.0430 104.287200927734
98.2100 46.6083183288574
98.9198 19.2781944274902
99.0410 437.376770019531
99.5700 9.3137321472168
99.9498 197.975540161133
100.0606 483.462554931641
100.2200 12.4212770462036
101.0202 3498.81201171875
102.0400 8478.474609375
103.0100 4123.8603515625
103.9282 256.218231201172
104.0497 512.388854980469
104.8271 72.8037719726563
104.9545 112.14323425293
105.1130 23.5969791412354
105.6500 18.2754364013672
105.8200 53.5670433044434
105.9616 93.9147796630859
106.1400 50.403881072998
106.7600 40.1250953674316
106.9317 18.0100059509277
107.0540 3.97397422790527
107.1580 20.2606639862061
107.8800 55.2046737670898
108.0739 41.2360992431641
108.9951 675.169189453125
109.7342 2.74890995025635
109.8690 8.590087890625
110.0163 99.8274002075195
110.6628 6.62244033813477
110.9200 103.640182495117
111.8700 71.3628158569336
112.0200 210.999420166016
112.1600 106.441314697266
112.8814 31.7039260864258
113.0021 413.508453369141
113.1136 78.3672103881836
114.0201 3720.02807617188
115.0399 12568.8154296875
116.0400 22303.416015625
117.0157 4091.2587890625
117.9300 245.100799560547
118.0313 1211.53125
118.8473 77.1589431762695
118.9853 184.403411865234
119.4900 12.8568954467773
119.6728 7.76880693435669
119.8900 65.8757705688477
120.1100 33.6386375427246
120.8525 14.4112396240234
120.9475 86.0695266723633
121.0517 57.0787467956543
121.1700 58.860481262207
121.3000 33.8827743530273
121.5200 21.7720890045166
121.6100 46.4399299621582
121.7800 50.7075347900391
121.9204 25.2145195007324
122.0700 16.4181575775146
122.2600 9.59523868560791
122.6700 16.0277233123779
122.8061 12.5389633178711
122.9411 67.5438919067383
123.1050 26.4811325073242
123.8800 19.9241733551025
123.9981 28.730770111084
124.6800 18.6918830871582
124.8000 6.03178405761719
124.9103 142.718780517578
125.0336 62.9948844909668
125.9488 202.598937988281
126.0900 157.299514770508
126.1802 3.7720742225647
126.8981 113.351837158203
127.0112 1122.05517578125
127.9088 127.53498840332
128.0300 10285.107421875
129.0398 18478.412109375
130.0400 14722.86328125
131.0009 715.832641601563
131.0600 1761.44885253906
131.7224 8.13826847076416
131.8800 128.37190246582
132.0000 590.294738769531
132.1426 9.82449913024902
132.8907 259.047912597656
133.0054 59.0755310058594
133.7769 54.9342422485352
133.8883 52.2028656005859
134.0337 35.6495742797852
134.9991 488.855255126953
135.7700 22.271936416626
135.9036 90.5901031494141
136.0495 9.81740570068359
136.2200 42.346492767334
137.0042 4965.16796875
137.9941 574.959838867188
138.9844 626.60302734375
139.9700 358.526214599609
140.0300 430.824005126953
140.1629 26.1101055145264
141.0208 1540.35327148438
141.8689 12.1535758972168
141.9700 422.757019042969
142.0401 1333.06872558594
142.1213 684.031127929688
142.9124 18.233211517334
143.0301 17421.908203125
144.0300 63191.9296875
145.0396 7165.8271484375
145.9500 376.912750244141
146.0491 412.359649658203
146.2700 14.7617568969727
146.7785 8.23582077026367
146.9065 41.0195465087891
147.0462 126.82593536377
147.7976 82.2963562011719
147.9500 238.053451538086
148.0600 88.1891479492188
148.1500 27.2008628845215
148.7620 28.7155857086182
148.9983 119.581748962402
149.1600 13.5024299621582
149.6800 10.0561265945435
150.0212 76.5794677734375
150.1300 10.5272645950317
151.0059 494.134155273438
151.6957 42.4963073730469
151.8385 61.4686088562012
151.9416 126.017852783203
152.0980 70.6037368774414
152.2600 52.581600189209
152.7828 61.6015472412109
152.9301 187.815124511719
153.0612 308.486724853516
153.9671 556.406066894531
154.0602 1548.41418457031
155.0300 4952.16796875
155.9930 702.972717285156
156.0606 2997.35595703125
157.0400 5625.53515625
158.0083 2031.7646484375
158.0889 575.250732421875
158.9400 962.463623046875
158.9854 775.87646484375
159.9336 263.01318359375
160.0431 182.677398681641
160.1500 33.747200012207
160.7965 46.7547454833984
160.9352 48.5672454833984
161.0800 81.7508773803711
161.8640 25.697193145752
162.0420 55.1998252868652
162.2100 26.0347442626953
162.8340 191.200729370117
163.7548 39.4168395996094
163.9079 80.2979583740234
164.0053 4.86522674560547
164.8878 81.4662017822266
164.9920 97.6796951293945
165.1379 24.2890110015869
165.9332 184.130523681641
166.0700 162.282424926758
166.9438 192.77490234375
167.0400 1057.64025878906
167.8740 100.601699829102
168.0174 1285.75
168.9364 366.970520019531
169.0485 642.821594238281
170.0500 4950.51708984375
170.9664 1017.26867675781
171.0300 565.20751953125
171.8236 31.9717807769775
171.9606 238.193435668945
172.0900 459.049865722656
173.0000 792.797119140625
173.0500 6030.5419921875
174.0000 623.04736328125
174.1000 950.608459472656
174.7600 11.9818315505981
174.9600 132.489807128906
175.0700 55.3672332763672
175.7400 32.6055641174316
175.9000 326.684814453125
175.9900 203.27033996582
176.1100 71.3079147338867
176.8290 47.7539863586426
176.9580 38.3782348632813
177.0707 97.5870742797852
177.7500 26.5731067657471
177.9363 38.5909385681152
178.1200 34.5397033691406
178.8160 46.186637878418
178.9200 55.4970550537109
179.0690 156.158950805664
179.7655 40.8603515625
179.8800 116.320953369141
180.0266 247.640594482422
180.1688 21.6124153137207
181.0315 609.174194335938
181.7064 8.04556655883789
182.0000 324.141296386719
182.0905 474.455749511719
182.8736 95.2617721557617
182.9962 613.381469726563
184.0193 1484.69165039063
184.0900 812.051940917969
184.4400 26.0971927642822
185.0401 1315.86682128906
185.8279 23.820743560791
185.9998 444.590209960938
186.1700 171.421615600586
186.9225 323.48681640625
187.8500 17.0191593170166
187.9900 92.5274963378906
188.8711 74.7144927978516
189.0072 54.7914772033691
190.0085 18.9787635803223
190.6000 10.0585069656372
190.8250 0.528167724609375
191.0417 214.254760742188
191.6800 13.2210512161255
191.8456 43.2456359863281
191.9524 115.75325012207
192.0343 39.5311050415039
192.1900 21.5160980224609
192.9300 249.666900634766
193.0264 117.253578186035
193.7943 51.9480400085449
193.9334 115.865180969238
194.9300 281.3916015625
195.0100 356.833465576172
195.9324 118.082847595215
196.0487 223.650527954102
196.1800 31.6006660461426
196.8638 175.251815795898
196.9573 415.206848144531
197.7921 11.2992935180664
197.9312 242.32145690918
198.0588 769.71533203125
198.9945 1142.83203125
199.9912 334.329559326172
200.1500 77.9983596801758
200.9444 329.075988769531
201.8915 128.00830078125
202.0500 211.142303466797
202.3600 9.59451103210449
202.8926 221.760589599609
203.0137 28.9890441894531
203.1108 118.206146240234
203.9828 112.697479248047
204.0793 970.485900878906
204.9820 322.648498535156
205.1000 1580.4326171875
205.2100 309.582489013672
205.9478 110.466003417969
206.0800 1237.6884765625
207.0245 625.8544921875
207.7000 8.39876270294189
207.9367 26.7009658813477
208.0600 103.610076904297
209.0268 296.226959228516
209.7964 32.7279052734375
209.9000 21.4630718231201
210.0413 323.531829833984
210.1600 148.317031860352
211.0116 1289.22216796875
212.0625 4010.36547851563
212.9546 164.858612060547
213.0742 878.142456054688
213.9941 199.453338623047
214.0921 319.131286621094
214.9800 2613.06494140625
215.9738 644.826293945313
216.9813 833.779968261719
217.8700 157.288223266602
217.9940 96.5110168457031
218.1400 19.4980621337891
218.9514 668.218505859375
219.7456 13.0278549194336
219.8539 71.9668579101563
219.9670 61.2892761230469
220.1721 12.9722709655762
220.9842 301.443145751953
221.8600 3.77227020263672
221.9721 94.0148315429688
222.9738 344.612091064453
223.1300 14.6546277999878
223.5700 12.3032674789429
223.9400 63.6851501464844
224.0500 96.0899047851563
224.1900 51.1770973205566
224.6700 13.4301424026489
224.8783 93.5109024047852
225.0142 104.726837158203
225.2100 52.6295433044434
225.8100 14.0070161819458
225.9200 36.779613494873
226.0200 135.583312988281
226.2000 36.4893074035645
226.2900 49.839527130127
226.4800 12.0736217498779
226.6235 15.2662515640259
226.9365 88.7476043701172
227.0510 206.559005737305
227.1800 135.556167602539
227.7435 34.2738914489746
227.9200 185.443435668945
228.1100 313.012329101563
228.4700 34.5813102722168
228.9495 218.849884033203
229.0555 523.877685546875
229.1900 208.533782958984
230.0987 4682.0654296875
231.0900 4276.82421875
232.1100 323767.625
233.1100 58078.15234375
234.0847 5220.9365234375
235.0235 590.517578125
235.1485 40.8143463134766
235.8649 96.129997253418
235.9900 49.9660797119141
236.9644 1311.74609375
237.9742 746.3369140625
238.9157 152.160110473633
239.0388 121.931579589844
239.8424 43.8941955566406
239.9826 115.337890625
240.1200 18.9753875732422
241.0395 1286.27294921875
241.9047 103.560958862305
242.0800 204.125854492188
242.1600 38.5025825500488
242.2800 13.9559726715088
242.7112 6.0379753112793
242.8889 81.3848876953125
242.9800 112.720191955566
243.0632 41.260368347168
243.9500 121.449836730957
244.1200 92.2039413452148
244.8359 14.1067733764648
244.9800 90.940185546875
245.1500 39.7181816101074
245.8600 54.5524635314941
245.9700 67.0906524658203
246.1200 169.572875976563
246.2400 9.34307861328125
246.8400 8.43819427490234
246.9809 19.3833808898926
247.1200 207.800384521484
247.2400 51.2309951782227
248.0700 829.819213867188
248.1400 1397.03332519531
248.9276 112.570625305176
249.0397 291.760803222656
249.1500 199.924606323242
249.9100 34.0449066162109
250.1100 35.0450134277344
250.9485 19.4484252929688
251.8300 8.39466190338135
251.9700 12.7812728881836
252.9985 30.469596862793
253.1600 82.3145294189453
253.8400 37.564754486084
253.9730 5.82759284973145
254.1100 46.9025192260742
254.8707 24.3545379638672
254.9800 79.0485687255859
255.1102 17.7060623168945
256.0300 17.4659805297852
256.6700 23.8388614654541
256.8283 66.1926727294922
256.9900 68.2884674072266
257.9600 93.4395599365234
258.0700 49.1917114257813
258.2500 41.2758026123047
258.9998 363.217895507813
259.1100 882.970520019531
260.1000 2169.201171875
260.1500 1649.49353027344
260.9400 15.4476976394653
261.0798 886.027709960938
261.1800 86.9300003051758
261.9200 51.0748558044434
262.0500 113.032043457031
262.1700 52.7860412597656
262.9600 17.8997421264648
264.7700 18.7975177764893
264.9462 12.5907974243164
266.0000 72.3952484130859
266.9094 159.314254760742
267.0600 143.817184448242
267.3700 8.31143951416016
267.8700 42.9886741638184
267.9700 141.030517578125
268.1200 175.354873657227
268.2200 31.4289417266846
269.0400 288.030456542969
269.9304 86.6359176635742
270.0700 79.4228973388672
270.1700 12.4691257476807
270.9226 56.7837677001953
271.0220 265.428405761719
271.8345 19.0186233520508
272.0305 82.384391784668
272.2100 13.4790468215942
272.9866 221.526077270508
273.1600 17.2780704498291
273.9266 89.3624649047852
274.0300 18.9140377044678
274.7354 3.58613395690918
274.9862 164.698699951172
275.1200 18.0954151153564
275.8100 47.0007057189941
275.8955 10.5458755493164
276.1000 11.5326480865479
276.6000 11.9176502227783
276.7969 23.0215740203857
276.9004 165.068222045898
277.7569 17.322732925415
278.0400 24.0288753509521
278.9766 8.0565299987793
279.1402 7.78508567810059
279.9213 41.4300537109375
280.6900 35.1979217529297
280.9229 121.732841491699
281.0592 10.0848541259766
281.8747 14.1971740722656
282.0615 22.2636299133301
282.8990 66.3617782592773
283.0100 40.323673248291
283.1267 26.0949306488037
283.9600 70.4517517089844
284.0900 50.0677909851074
284.2200 20.5563831329346
285.0251 506.199829101563
285.1265 204.720550537109
286.0982 2725.41186523438
287.1097 5461.755859375
288.1200 16860.234375
289.0800 4422.70068359375
290.0083 293.274322509766
290.1006 225.458480834961
290.6100 9.41231060028076
290.9293 33.3006134033203
291.0615 48.6105041503906
291.8900 12.2686977386475
292.0103 0.205379486083984
292.9538 678.33447265625
293.7445 13.9062690734863
293.8941 175.282043457031
294.5800 20.8873195648193
294.7152 3.34521484375
294.9338 82.7231292724609
295.0694 46.5719223022461
295.8075 15.2785530090332
295.9700 21.9949626922607
296.7434 31.0169372558594
296.8547 223.367004394531
297.2100 16.7382621765137
297.8900 131.305435180664
298.0167 5.81309080123901
298.7212 25.9513664245605
298.9220 63.6229705810547
299.0736 26.5623245239258
299.9000 32.461353302002
300.0200 71.6020278930664
300.1500 91.1869125366211
301.0200 71.9825820922852
301.1400 178.819625854492
301.8500 9.26287841796875
301.9581 7.45822715759277
302.2300 14.1874313354492
302.4000 9.49811363220215
302.8700 85.4834365844727
302.9860 92.1180877685547
303.1369 133.740386962891
303.2400 112.277244567871
303.8500 27.6036281585693
304.0800 193.50114440918
304.1800 81.2342224121094
304.9646 72.9766082763672
305.1000 2053.51049804688
305.2200 193.178604125977
306.0200 292.378326416016
306.1600 157.180786132813
306.9400 71.5269165039063
307.0516 32.9779586791992
307.9800 67.4443588256836
308.2700 9.52172088623047
308.7800 21.2569389343262
310.1100 8.64000797271729
310.8185 59.002513885498
311.0765 32.8071060180664
311.9600 36.6384544372559
312.1700 27.8630180358887
312.7100 11.390721321106
313.1600 8.10816192626953
314.7966 4.32933330535889
314.9300 79.8839645385742
315.1000 115.672752380371
315.2477 37.1896324157715
315.9300 23.5312442779541
316.0900 92.9853363037109
316.2300 93.0484008789063
317.1700 9614.4931640625
318.1700 2633.45092773438
319.0900 317.880615234375
319.2200 85.4844741821289
322.9200 9.86505031585693
323.0700 31.0889186859131
323.1900 8.23326206207275
323.3100 9.11805629730225
323.9800 9.10093212127686
324.1300 29.5402584075928
324.8600 11.0063848495483
325.0200 36.1460113525391
326.1800 28.2221908569336
326.2900 22.3529453277588
326.9200 43.0773010253906
327.0400 47.2681617736816
327.1500 72.9498138427734
327.9600 32.5410270690918
328.0600 206.721786499023
328.1600 143.998962402344
328.8400 37.7843589782715
329.0600 811.678039550781
329.1600 978.025390625
329.3100 33.5092544555664
329.8400 15.7532329559326
330.0000 12.5721406936646
330.1200 370.228607177734
330.8779 22.8536472320557
331.1029 33.7219696044922
331.2500 16.8081111907959
332.7430 1.64992904663086
334.8100 9.42746353149414
335.8900 8.12854290008545
340.9700 27.6231498718262
341.0500 37.0515365600586
341.1900 43.550724029541
341.9600 8.65828418731689
342.1000 24.7323341369629
343.1800 1154.95275878906
343.3200 111.063911437988
344.0000 41.3276176452637
344.1100 814.594970703125
344.2000 557.395751953125
344.9300 17.5159187316895
345.0600 212.722732543945
345.1900 130.975509643555
345.3800 25.0009021759033
345.7200 16.2783489227295
345.9700 102.274368286133
346.1500 259.119903564453
346.8700 21.4338073730469
347.0000 21.0300827026367
347.2400 17.8518009185791
348.8100 42.5018692016602
348.9124 24.2619953155518
349.0500 50.4032745361328
350.7400 8.12539005279541
352.7680 26.9419536590576
353.1400 17.8941879272461
355.0700 11.9080572128296
356.6998 6.57793617248535
357.4300 9.31895065307617
358.2900 8.71750545501709
358.8400 20.7043914794922
359.0700 35.877326965332
359.2600 20.3765029907227
359.9500 10.6906232833862
360.2000 22.3084316253662
361.2100 10079.8330078125
362.1800 1541.38671875
362.2500 840.037719726563
363.0315 58.7513236999512
363.1700 335.243927001953
363.4200 15.9410018920898
366.8880 24.2777156829834
370.8318 1.43054389953613
387.0900 8.35225677490234
394.9500 9.83355712890625
427.2300 8.13152694702148
