#"+EI Scan (rt: 8.962-9.084 min, 22 scans) R6M1.D  Subtract "
#Point,X(Thompsons),Y(Counts)
40.0917 96.2105712890625
40.2700 17.3926277160645
41.0247 1300.58483886719
41.0801 2458.2578125
41.9076 73.7592849731445
42.0295 179.654479980469
42.8707 3.72639274597168
43.0173 755.078796386719
43.0894 950.346923828125
43.9589 442.65966796875
44.8966 146.921295166016
45.9300 39.8155822753906
46.4100 16.1003742218018
47.0021 1070.94189453125
47.9600 7.00157308578491
48.8358 4.02881908416748
48.9478 15.9512310028076
49.0967 4.15623807907104
50.0071 173.083679199219
51.0366 535.33740234375
51.9371 46.6362419128418
52.0500 38.9243621826172
52.9534 172.726501464844
53.0674 179.114379882813
53.9235 28.0149765014648
54.0822 42.7096328735352
55.0569 303.621704101563
55.7900 33.3181991577148
55.8862 78.1840591430664
56.8243 3.96000671386719
56.9458 161.806182861328
57.8749 2.67075729370117
58.0353 12.1078262329102
58.1500 47.3661231994629
59.0300 824.07958984375
59.9382 73.7418746948242
60.8755 5.85575675964355
60.9700 232.189651489258
61.0754 161.724197387695
61.9611 72.4050827026367
62.0900 93.4293975830078
62.2200 31.1451244354248
62.9268 53.4588394165039
63.0319 608.204833984375
63.9460 113.25471496582
64.0644 65.8214263916016
64.9434 135.070617675781
65.0732 223.357711791992
65.7887 6.48825693130493
65.9457 9.62176895141602
66.1124 22.5235233306885
66.8822 23.3699722290039
67.0128 45.506275177002
67.1419 100.562370300293
67.8848 21.0600414276123
68.0300 28.4466171264648
68.9652 128.785003662109
69.0621 752.088989257813
69.9444 23.7686157226563
70.1482 57.9970779418945
70.2900 16.3764419555664
70.7500 13.6275901794434
70.9092 60.5228881835938
71.0684 10.5881042480469
71.9800 20.0756893157959
72.1621 1.3857479095459
73.0400 577.908325195313
73.9020 97.9573593139648
74.0289 36.7025985717773
74.1864 16.4589347839355
74.9565 385.717681884766
75.0609 194.510345458984
75.9735 216.753601074219
76.1101 332.648010253906
77.0246 1439.3447265625
78.0200 740.53515625
78.9395 306.654205322266
79.8907 10.2257213592529
80.0512 22.0914287567139
80.2229 0.683994293212891
80.9809 179.214172363281
81.8400 74.9320755004883
82.8604 4.61567687988281
82.9927 90.0880661010742
83.1004 3.10821533203125
84.7946 94.4530181884766
85.0577 75.542839050293
85.8609 37.0667037963867
85.9800 35.9617652893066
86.1518 20.1825771331787
87.0247 303.93408203125
87.7999 29.3246574401855
87.9605 346.856567382813
88.0700 175.548873901367
88.9810 1180.93859863281
89.0417 947.1767578125
89.7958 21.7584953308105
89.8900 102.3935546875
89.9718 277.631225585938
91.0033 538.678955078125
91.9456 47.1751708984375
92.0592 23.5984706878662
92.6700 22.2790794372559
93.1100 80.6096649169922
93.3900 10.0421314239502
93.5500 11.1790838241577
93.8201 5.4344539642334
93.9814 18.6817016601563
94.4000 25.9643840789795
94.7200 33.8179702758789
94.8565 21.1334972381592
94.9750 1.61664581298828
95.0885 18.2180976867676
95.7088 33.7343788146973
95.8041 41.9993896484375
95.9775 4.26976776123047
96.7494 2.048828125
96.8985 34.0203247070313
97.0064 76.6855621337891
97.7907 17.448112487793
97.9351 122.349212646484
98.0873 8.91075325012207
98.5900 8.70970153808594
98.7416 30.525016784668
98.8700 29.5768604278564
98.9600 3.96660470962524
99.0600 86.3296432495117
99.1542 27.8122291564941
99.8554 55.1198272705078
99.9795 96.4999160766602
100.0981 25.4984226226807
100.2500 50.6883659362793
100.6887 8.21739673614502
100.9494 337.171020507813
101.0400 725.162536621094
101.1403 62.5657386779785
101.8692 37.6383171081543
102.0200 2330.34350585938
102.1300 79.7887954711914
102.9852 791.051452636719
103.0581 140.204376220703
103.7796 4.25529479980469
103.9028 53.9808807373047
104.0426 109.489814758301
104.8264 15.0337200164795
104.9833 42.540454864502
105.6350 6.80658340454102
105.9117 39.748722076416
106.0878 16.5808582305908
106.2401 99.5123672485352
106.4500 49.0944938659668
106.6000 45.8440551757813
106.8309 40.6096115112305
106.9860 28.3823776245117
107.1230 87.67236328125
107.3700 15.5009756088257
107.5200 35.6918182373047
107.6500 11.3733501434326
107.7868 12.3908195495605
108.0539 19.2033882141113
108.3100 19.2945785522461
108.9992 297.268890380859
109.7756 16.1558208465576
109.9189 85.4209136962891
110.9558 45.2280349731445
111.0625 63.2478523254395
111.6800 15.1276483535767
111.8100 17.1957321166992
111.9829 51.0057678222656
112.1400 50.7173004150391
112.9980 915.774597167969
113.1383 50.5679473876953
113.4500 10.5652141571045
113.9101 350.309692382813
114.0398 740.279052734375
114.2600 23.1805667877197
115.0393 11919.396484375
115.8911 132.345291137695
116.0299 4992.59716796875
117.0100 956.732116699219
117.8153 24.0546989440918
117.9274 75.6820983886719
118.0314 106.21745300293
118.2100 24.9159889221191
118.5200 14.1872005462646
118.7786 114.07447052002
119.0243 91.0503845214844
119.1559 160.990447998047
119.3200 47.5728530883789
119.4700 102.63639831543
119.6100 86.6852264404297
119.7704 68.4501266479492
120.0614 57.0864562988281
120.3800 128.757095336914
120.5801 486.629913330078
120.7749 65.2106323242188
121.0412 197.134262084961
121.2500 15.1533870697021
121.5700 35.4370765686035
121.7200 49.007640838623
121.9875 10.1937770843506
122.1840 14.8666114807129
122.7654 45.4203643798828
122.9386 28.4359817504883
124.8020 78.7030944824219
124.8935 51.7470092773438
125.1600 16.6201858520508
125.7711 22.8521347045898
125.9898 282.902221679688
126.0999 242.546188354492
126.2100 227.982604980469
126.6792 16.8801307678223
126.9957 816.248474121094
127.0903 1134.02221679688
127.2800 103.734321594238
127.9500 840.682556152344
128.0106 2079.51049804688
128.9613 582.166137695313
129.0404 1749.70324707031
130.0391 1731.09008789063
130.9450 173.172760009766
131.0700 131.942611694336
131.8815 147.490447998047
132.0100 35.605297088623
132.1083 141.721755981445
132.2600 26.5680847167969
132.4400 30.6130390167236
132.6200 25.6026058197021
132.9965 9.30156326293945
133.3400 117.97216796875
133.5000 355.927490234375
133.6700 174.555313110352
133.8059 115.735580444336
133.9145 31.9038009643555
134.1665 132.402847290039
134.3200 98.0618438720703
134.4200 117.72119140625
134.5700 520.639709472656
134.7101 395.199890136719
135.0921 302.184295654297
135.2200 48.6355323791504
135.5572 15.8841571807861
135.7325 32.3595390319824
135.9255 28.9945526123047
136.0365 152.421798706055
137.0100 2885.30859375
137.9873 367.567810058594
139.0282 5257.2119140625
139.7873 8.89834308624268
139.9255 184.111923217773
140.0495 1739.26879882813
141.0438 9991.9794921875
141.7494 416.759033203125
141.8930 774.216247558594
142.0710 611.575317382813
142.9049 270.256805419922
143.0047 603.491394042969
143.1400 37.2208709716797
144.0203 9597.5107421875
144.9267 195.448303222656
145.0284 877.930053710938
145.1587 6.72165012359619
145.6090 11.8063220977783
145.7622 34.8840293884277
145.8748 65.5022354125977
146.0237 48.5984687805176
146.1500 44.0938835144043
146.8700 100.062767028809
146.9800 41.2484321594238
147.1400 45.8659324645996
147.4900 83.5803070068359
147.6100 42.7243499755859
147.7128 61.8483428955078
148.2824 54.5059242248535
148.5200 959.577880859375
148.6102 1321.80541992188
149.1642 237.326995849609
149.5800 9.86598682403564
149.8193 30.8455123901367
149.9500 70.7041320800781
150.0708 100.601135253906
150.9110 96.3116912841797
151.0340 263.866333007813
151.8349 48.6011428833008
151.9638 355.687622070313
152.0624 173.016662597656
152.9578 326.106506347656
153.0615 404.305328369141
153.7850 23.0881843566895
153.9816 308.478790283203
154.0720 325.955169677734
154.9912 891.102966308594
156.0234 831.220520019531
156.9080 369.359924316406
157.6882 11.3336696624756
157.8887 69.4068145751953
157.9840 175.767395019531
158.9700 664.30322265625
159.9094 330.207183837891
160.8683 16.497802734375
160.9754 58.1824035644531
161.7900 5.71679306030273
161.9458 22.0110015869141
162.0627 28.6327953338623
162.9497 622.503540039063
163.8663 71.3100738525391
164.0348 99.7191467285156
164.9396 150.222579956055
165.0616 161.965774536133
165.1800 39.1491851806641
165.6000 11.4333057403564
165.7492 49.8017120361328
165.8977 35.2281494140625
166.0397 138.839462280273
166.3300 7.74275064468384
166.9800 341.283813476563
167.9100 119.333206176758
168.0110 196.079132080078
168.1208 185.216567993164
169.0497 6623.29638671875
170.0400 1611.61486816406
170.9252 115.04216003418
171.0300 175.615615844727
171.8001 25.5886383056641
171.9586 72.268928527832
172.6632 46.7478408813477
172.8465 11.9180965423584
173.9000 16.221773147583
173.9894 18.746883392334
174.0900 43.7727088928223
174.8180 25.6979827880859
175.0343 47.9959526062012
175.7200 9.02096462249756
175.8303 76.7655181884766
175.9703 119.301612854004
176.0600 38.8861312866211
176.4200 7.2041163444519
176.7897 20.2180557250977
176.9781 105.781532287598
177.1798 7.64760065078735
177.7186 15.6536054611206
177.9114 48.1139984130859
178.0100 104.397514343262
178.7276 8.97193717956543
178.8432 42.2945442199707
179.0033 52.5518112182617
179.1600 9.12689590454102
179.8681 72.5032806396484
179.9759 66.2421875
180.0500 72.5758209228516
180.2060 18.4386425018311
181.0302 4974.48388671875
181.9442 215.525192260742
182.0502 689.747375488281
182.7681 87.5070114135742
182.8745 42.9274291992188
182.9805 76.2492980957031
183.8300 54.285228729248
183.9500 132.746704101563
184.0900 74.3955993652344
184.9465 494.594940185547
185.7463 17.4243946075439
185.9962 74.7951507568359
186.2800 30.0521297454834
186.6800 13.3121433258057
186.7778 144.084838867188
186.9240 119.026077270508
187.0288 71.7903137207031
187.1580 29.0310440063477
187.9552 60.7206115722656
188.0984 29.9504280090332
188.9044 146.702346801758
189.0337 157.381591796875
189.9498 104.542556762695
190.3000 13.3744564056396
190.7142 6.96310997009277
190.8600 0.753189086914063
190.9491 69.6870727539063
191.0624 44.1695785522461
191.6769 19.9072608947754
191.9776 36.7124900817871
192.1322 5.28693866729736
192.8668 147.453582763672
193.8809 21.7193565368652
194.0241 28.2688331604004
194.9748 865.273559570313
195.7645 22.3667221069336
195.9100 54.4100570678711
196.0089 60.642520904541
196.1308 21.4194717407227
196.9576 212.385864257813
197.9200 123.910163879395
198.0680 62.0461578369141
198.7276 21.1127452850342
198.9800 200.902359008789
199.6040 6.6286096572876
199.8723 92.3257598876953
199.9900 263.138275146484
200.1700 15.4420595169067
200.8616 122.063720703125
200.9608 209.915145874023
201.8745 97.2493743896484
201.9945 421.176483154297
202.1099 78.6397857666016
202.9900 241.840881347656
203.1036 15.0360565185547
203.8104 6.94997501373291
203.9318 155.377716064453
204.0800 99.0492477416992
204.1900 32.153865814209
204.9714 233.679016113281
205.8100 10.1728649139404
205.9479 25.4323348999023
206.0850 17.6834259033203
206.7642 17.7583255767822
206.8800 155.068695068359
207.8849 139.236846923828
208.9185 50.1843872070313
209.0657 17.3375816345215
209.8143 14.8543090820313
209.9647 48.4432067871094
210.1211 11.0636129379272
211.0000 567.2568359375
212.0064 508.86962890625
212.1600 53.9931297302246
212.9100 33.9085083007813
213.0321 714.841064453125
213.7803 0.436349868774414
213.9175 181.671783447266
214.0286 451.107696533203
214.1534 64.9711303710938
214.9854 1581.580078125
215.9776 757.621459960938
216.9191 583.645324707031
217.8754 48.0072326660156
218.0063 54.0587768554688
218.1331 4.74019384384155
218.2700 11.0663461685181
218.8950 745.339294433594
219.7658 31.872688293457
219.9333 16.6020812988281
220.0500 44.318244934082
220.3100 7.37126111984253
220.8731 204.226516723633
221.6952 6.57295942306519
221.9741 0.742503046989441
222.7970 90.5680847167969
222.9062 94.4509429931641
223.9584 350.064880371094
224.0901 100.781684875488
224.7219 19.801815032959
224.9736 297.639373779297
225.1159 136.318878173828
225.8583 107.542861938477
226.0400 1221.75610351563
226.1404 194.215240478516
226.9444 262.919403076172
227.0694 561.807189941406
227.8193 36.1246452331543
227.9891 327.539916992188
228.0997 494.371704101563
228.2100 57.4500770568848
228.9808 343.764282226563
229.0628 176.045623779297
229.8533 85.2692794799805
230.0200 166.078063964844
230.1162 60.9327430725098
230.6624 6.55338668823242
230.9504 68.5473022460938
231.0833 92.7331771850586
232.1099 12915.5029296875
233.0300 7263.47216796875
233.9798 428.771057128906
234.7777 63.4610214233398
234.9041 74.0217590332031
235.7789 13.9124326705933
235.9465 128.163757324219
236.9700 869.4345703125
238.0500 341.634552001953
238.9361 237.115936279297
239.0423 520.987182617188
239.7824 9.5101490020752
239.9100 46.6780052185059
240.0697 1434.26782226563
241.0496 4087.5791015625
241.1500 156.793441772461
241.9655 304.665222167969
242.0500 859.852233886719
242.6633 5.80176639556885
242.8712 38.0835571289063
243.0108 148.050552368164
243.2309 13.9502468109131
243.7600 7.89274549484253
243.9358 6.6369743347168
244.1100 25.1394824981689
244.7539 11.8500738143921
244.8708 2.18561935424805
244.9850 36.9809303283691
245.0700 17.7100467681885
246.6968 2.6165189743042
247.0005 0.457442283630371
248.7828 19.2871589660645
248.8936 75.2644500732422
249.0765 14.4798622131348
249.9417 21.6190299987793
250.0880 42.4018669128418
250.8400 109.169486999512
250.9996 319.106536865234
251.1685 82.2782669067383
251.9400 228.350234985352
252.0600 421.76416015625
252.9671 36.6816177368164
253.0702 1200.10717773438
253.9600 142.037780761719
254.0800 4157.263671875
254.9227 45.4484024047852
255.0797 2397.07202148438
255.9600 250.104553222656
256.0600 493.023071289063
256.1400 432.717559814453
256.9763 236.607925415039
257.0980 168.211898803711
257.9212 22.4611892700195
258.0493 48.2060852050781
258.9871 18.5575466156006
259.1400 24.5368099212646
260.6600 6.24618911743164
261.9527 25.8000469207764
262.7648 0.0957574844360352
262.9420 6.14031314849854
263.7700 75.5195846557617
263.9800 58.2074737548828
264.0900 68.898567199707
264.8493 58.7385787963867
264.9798 162.636505126953
265.0999 217.855010986328
266.0000 509.733215332031
266.1100 267.465209960938
266.7562 7.22627830505371
266.9667 305.92529296875
267.0302 662.941772460938
267.1300 129.270706176758
267.3100 9.03156185150146
268.0700 2445.00341796875
269.0502 2629.826171875
269.1616 56.4132232666016
270.0700 2668.96508789063
270.4600 10.0172157287598
270.9163 128.445388793945
271.0438 681.043701171875
271.7568 17.7506198883057
271.9900 92.5431289672852
272.1400 10.4917879104614
272.9600 176.444564819336
273.7402 5.00897216796875
273.8716 26.3631019592285
274.0611 14.6121845245361
274.8351 10.3672637939453
274.9572 145.599365234375
275.8600 104.603736877441
276.9543 214.706665039063
277.0962 19.9421253204346
277.9074 61.7132339477539
278.0400 128.613021850586
278.7000 27.4394855499268
278.7457 3.33013534545898
279.0108 185.844543457031
279.1500 17.1761112213135
279.9303 170.282150268555
280.0900 669.372192382813
280.7000 19.0262413024902
280.9451 222.401641845703
281.0703 745.116088867188
281.9023 16.3043441772461
282.0200 463.832977294922
282.0998 988.683288574219
282.8200 8.62140846252441
282.9365 11.1418743133545
283.0699 2109.09692382813
284.0500 1957.19909667969
284.1000 4536.61865234375
285.0497 1713.77941894531
285.9400 148.217498779297
286.0757 176.624877929688
286.1558 7.0868968963623
286.4894 7.55637502670288
286.6453 6.43690013885498
286.9960 27.1811904907227
287.1898 5.21378993988037
287.8106 24.6697978973389
288.0254 21.4661407470703
288.9544 193.264526367188
289.7703 21.0260772705078
289.8924 90.7314987182617
290.7600 9.48356819152832
290.9246 35.0472946166992
291.0380 88.0184936523438
291.2405 5.75275468826294
291.6800 24.8731307983398
291.8268 61.654712677002
291.9895 26.9034061431885
292.9800 736.43212890625
293.9802 423.330810546875
294.0980 181.854354858398
294.9723 368.378143310547
295.1000 62.8217544555664
295.2100 40.4981422424316
295.8968 97.5252380371094
296.0694 615.503173828125
296.7831 52.4285659790039
297.0089 514.379943847656
297.1200 123.871467590332
298.1100 11201.5048828125
299.0800 2824.84936523438
300.0200 260.910797119141
300.1100 109.097579956055
300.3000 16.0222301483154
300.7000 25.9772319793701
300.7911 13.6092491149902
300.9271 52.7647972106934
301.1369 13.0025129318237
301.7489 8.70273971557617
302.9100 16.7415752410889
303.0070 31.9298896789551
304.0613 5.48005533218384
304.7800 26.0372295379639
304.9951 24.7189674377441
306.0100 22.8037109375
306.1600 9.37112808227539
306.7124 15.7281303405762
306.8700 2.94986343383789
307.0307 51.7784309387207
307.7600 7.81954193115234
308.0786 102.966896057129
308.3300 24.1305847167969
308.9200 35.985237121582
309.0600 23.1435508728027
309.8400 14.5011434555054
309.9700 39.5859107971191
310.0900 147.288558959961
310.8419 60.8206558227539
310.9452 37.2827453613281
311.0877 17.1122245788574
311.9493 89.251579284668
312.0398 116.395706176758
312.1415 61.1997299194336
312.3100 24.0215873718262
313.1700 46.7799530029297
314.7684 14.0596323013306
314.9300 9.80487442016602
315.0867 13.4379281997681
315.9500 8.60733222961426
317.0300 12.1362314224243
318.9000 8.5044527053833
319.9600 17.7504558563232
321.8400 13.9503631591797
322.1500 19.8694896697998
323.0900 7.4429874420166
323.9500 9.29997634887695
324.0600 49.4244270324707
324.2700 40.7050514221191
324.3800 8.01132678985596
324.9500 10.6514358520508
325.1300 7.77117013931274
325.9600 17.1612491607666
326.0700 31.5454654693604
326.2200 25.9817008972168
326.9686 22.7334060668945
327.1395 22.8016204833984
328.8290 21.76708984375
329.0700 40.929126739502
330.0700 11.7283945083618
330.7300 7.78523826599121
330.8558 24.120979309082
331.0532 22.1817760467529
331.8100 7.35284757614136
332.9444 2.23970508575439
335.8900 7.46047019958496
336.1000 71.4159469604492
336.2100 57.9414520263672
337.1000 21.299430847168
337.9200 16.3259944915771
338.0900 68.7981948852539
338.2400 15.5820474624634
339.1106 17.2716865539551
339.7900 8.46253490447998
340.0600 355.579467773438
340.1600 208.834762573242
341.0700 66.0439147949219
341.1600 83.539680480957
341.9000 7.75217580795288
343.1900 10.1531810760498
343.9800 142.224472045898
344.1000 210.298156738281
344.2400 115.693359375
344.8684 64.7638854980469
345.0498 151.970947265625
345.1200 155.097213745117
345.2190 88.6857376098633
345.3500 14.5728178024292
345.8800 8.62144374847412
346.0600 100.674072265625
346.2300 12.2316989898682
346.8715 7.09140062332153
348.6549 2.67427253723145
348.8269 19.4619026184082
348.9959 36.8082389831543
349.8909 7.22210025787354
350.7818 5.23610305786133
351.0086 19.9888668060303
352.0600 67.9646301269531
352.2000 46.3811492919922
352.3100 8.92464351654053
352.9151 40.4169578552246
353.0396 164.807022094727
353.1600 156.359191894531
353.7373 6.59659957885742
353.8600 34.594066619873
354.0300 168.677001953125
354.1700 452.877410888672
354.3400 16.3131160736084
354.8722 53.0973243713379
355.0803 132.681518554688
355.1900 138.017272949219
355.9800 75.0646438598633
356.1700 10889.34765625
356.8800 21.4250431060791
357.1600 3221.0048828125
358.1200 2118.62451171875
358.1900 1765.39660644531
358.8703 38.2958564758301
358.9900 76.1448669433594
359.0899 860.38427734375
359.2000 86.0814819335938
360.0000 54.831600189209
360.1500 54.3134002685547
360.3100 10.1191673278809
360.7800 7.18860149383545
360.9100 10.4493036270142
364.8200 10.0114059448242
366.9666 41.4254608154297
370.6600 15.0917634963989
370.7900 13.2326669692993
370.9122 61.6675071716309
371.0800 59.6661491394043
371.2000 31.6625995635986
372.1700 9308.279296875
373.1800 18255.923828125
374.1900 4796.02978515625
375.0500 104.319938659668
375.1600 250.744003295898
375.2400 359.486602783203
376.0300 8.36562728881836
376.1900 11.9797458648682
385.0100 7.57757425308228
