#"+EI Scan (rt: 8.956-9.078 min, 22 scans) R7M1.D  Subtract "
#Point,X(Thompsons),Y(Counts)
39.9700 22.084680557251
40.0765 84.0510787963867
41.0349 2647.68017578125
41.0883 813.786865234375
41.9845 205.366790771484
42.1123 68.1225891113281
43.0494 1694.90319824219
43.9300 305.929412841797
45.0141 70.6198577880859
46.0034 20.5519542694092
47.0034 1071.03369140625
48.9686 19.7215232849121
49.0932 4.34748363494873
49.8448 81.55224609375
50.0294 114.865531921387
51.0039 416.578582763672
51.8650 17.2947311401367
51.9717 85.3230514526367
52.0700 8.78128242492676
52.7989 5.61872291564941
53.0023 357.65576171875
53.8070 6.49282646179199
53.9600 47.3466033935547
54.0227 16.6074295043945
54.1800 8.98785495758057
54.9700 441.344207763672
55.9152 10.369499206543
56.0694 21.753116607666
56.9715 312.939239501953
57.7300 26.4037609100342
57.9900 66.8157501220703
58.3041 5.81617450714111
59.0300 917.41943359375
59.8804 3.17899322509766
59.9820 63.186149597168
60.8959 122.556495666504
61.0340 333.111602783203
61.7794 4.9091649055481
61.9191 71.5484848022461
62.0330 111.971771240234
62.9021 421.160858154297
63.0320 120.056327819824
63.8142 6.65287590026855
63.9265 21.0121040344238
64.0359 75.5302886962891
64.1700 9.43951225280762
64.8538 96.3150253295898
64.9867 148.912078857422
65.0747 83.6351852416992
65.9565 45.4421844482422
66.1582 5.21064758300781
66.9308 57.4959564208984
67.0500 195.999435424805
67.8726 15.6570205688477
68.9754 361.556762695313
69.0484 702.898132324219
69.9100 55.4352188110352
70.1013 21.0979270935059
70.2400 17.8240489959717
70.7630 7.53868770599365
71.0100 23.8050174713135
71.0935 41.5086898803711
71.8902 14.8673048019409
72.0700 11.8024559020996
73.0300 386.091552734375
74.0000 240.878723144531
74.0767 102.823989868164
74.9867 469.033203125
75.0826 247.117370605469
76.0664 512.1337890625
77.0247 1338.671875
78.0253 707.767578125
79.0337 641.108276367188
79.8819 9.87491607666016
80.0157 93.2374725341797
80.9784 114.950378417969
81.9500 80.2500915527344
82.0318 0.510442733764648
82.1900 16.7154846191406
82.8721 45.2974395751953
83.0235 12.1500473022461
84.7942 28.1499862670898
84.9661 119.817092895508
85.8300 22.0830059051514
86.0562 88.1808700561523
86.8088 37.2677421569824
86.9158 56.7334518432617
87.0250 175.290710449219
87.8042 25.5167636871338
87.9100 218.145126342773
88.0100 275.274536132813
88.1800 15.7076110839844
88.9554 439.525512695313
89.0318 1311.84204101563
89.1677 37.7347412109375
89.8320 24.7960205078125
90.0552 238.844909667969
90.9600 244.950958251953
91.0785 152.514953613281
91.8383 20.816427230835
91.9950 51.4834098815918
92.6600 7.0835862159729
92.8999 43.1026992797852
93.0259 16.1595306396484
93.8939 3.52188873291016
94.1700 36.2644081115723
94.4700 17.5601673126221
94.5800 8.3986177444458
94.8278 83.9535598754883
94.9946 26.5961799621582
95.1740 37.5068092346191
96.1820 57.2859191894531
96.5500 26.2666511535645
97.0805 67.2197341918945
97.1880 29.4490242004395
97.7444 4.90840721130371
97.9727 5.32353496551514
98.1270 11.4690999984741
98.6700 17.216775894165
98.9126 41.7482147216797
99.0747 31.9675903320313
99.1900 11.4048004150391
99.7900 13.7528295516968
99.9593 43.9785614013672
100.0887 16.2900829315186
100.8323 110.949226379395
100.9400 381.476348876953
101.0904 517.144897460938
101.7600 34.9684715270996
101.9798 1625.12841796875
102.0600 797.818908691406
102.9154 206.155700683594
103.0324 463.279266357422
103.8100 54.0829429626465
103.9343 103.110328674316
104.0700 47.9137573242188
104.7400 38.3530616760254
105.8600 26.6358089447021
106.0300 40.7509994506836
106.1400 37.7313079833984
106.2900 51.8360977172852
106.6773 103.837028503418
107.0085 22.8482131958008
107.1200 90.6809158325195
107.3400 8.0337028503418
107.4800 35.0816230773926
107.6437 35.535400390625
108.0071 49.7284393310547
108.1400 30.6095027923584
108.2791 12.4177541732788
108.8800 210.852310180664
109.0600 484.766418457031
109.8835 9.66703796386719
109.9947 32.8418350219727
110.1200 39.7790298461914
110.8719 40.3559951782227
111.0099 31.2408695220947
111.1802 7.67965412139893
111.8600 4.84294176101685
111.9700 57.665714263916
112.1200 24.6462173461914
112.2200 14.2835397720337
112.3300 8.91587924957275
112.9264 100.070785522461
113.0200 675.405639648438
113.6500 26.9698371887207
113.8427 19.3867416381836
113.9900 944.378173828125
114.1433 69.3512344360352
115.0292 11447.1826171875
116.0300 4690.56396484375
117.0070 1131.1748046875
117.8378 43.1111373901367
117.9923 61.590705871582
118.1227 118.279777526855
118.2800 27.3454113006592
118.5100 8.63511943817139
118.6537 5.77939605712891
119.0259 158.085464477539
119.2100 60.5944175720215
119.3500 19.7092323303223
119.4500 53.3780784606934
119.6700 68.1659088134766
119.7600 101.242988586426
119.9281 22.9504547119141
120.0200 64.3965606689453
120.1600 22.0515842437744
120.3100 38.247386932373
120.4300 206.255615234375
120.6500 350.073394775391
120.7682 53.8766975402832
120.9033 22.2092761993408
121.0649 10.3615436553955
121.1700 45.5089416503906
121.3300 43.7127304077148
121.5800 57.7783699035645
121.7621 67.2257995605469
121.8900 27.5507926940918
122.0424 40.454044342041
122.3800 16.9203662872314
122.7721 61.7722129821777
122.9940 103.193511962891
124.9758 134.444427490234
125.1443 30.4438724517822
125.8604 95.3457870483398
125.9900 405.734100341797
126.0700 114.104423522949
126.2100 54.6586761474609
126.7200 18.436487197876
126.9484 357.845062255859
127.0796 1489.43383789063
127.6100 46.394359588623
127.9106 303.821624755859
128.0404 2449.30078125
129.0103 2268.00634765625
129.1200 53.9876556396484
129.9800 658.544921875
130.0585 921.452880859375
130.7339 31.2258758544922
131.0617 228.192947387695
131.6900 6.86578512191772
131.8000 15.280707359314
131.9896 238.975051879883
132.2180 62.6716537475586
132.4600 32.952938079834
132.6400 59.8118553161621
133.1100 261.872192382813
133.3500 130.505722045898
133.4900 187.188720703125
133.5800 323.82177734375
133.7906 175.561416625977
134.0556 78.6222839355469
134.3291 266.302917480469
134.4800 218.87451171875
134.5900 263.241271972656
134.7204 538.29150390625
135.0310 117.332641601563
135.1700 54.5970001220703
135.7141 62.1747627258301
135.8388 23.9509658813477
136.0006 8.23039245605469
136.1330 79.6957550048828
137.0053 1999.02734375
137.9795 460.994384765625
139.0383 5126.57958984375
139.9151 190.5693359375
140.0397 1370.978515625
140.1305 298.320587158203
141.0668 9875.712890625
141.7597 778.666076660156
141.9154 627.7841796875
142.0349 46.5367050170898
142.1700 242.584167480469
142.8372 7.79347610473633
143.0162 925.911987304688
143.8928 52.0268020629883
144.0201 8579.7216796875
144.9720 790.74609375
145.0416 241.281402587891
145.3800 10.7863912582397
145.6800 18.7121467590332
146.0100 64.3298416137695
146.8012 17.7899322509766
146.9307 17.0899887084961
147.1301 85.5278625488281
147.4200 31.232738494873
147.5300 8.96599960327148
147.7300 99.6186447143555
148.3615 44.7128944396973
148.5500 1993.23168945313
148.6600 284.612335205078
149.1700 105.464942932129
149.2600 33.0859413146973
149.5612 18.8780384063721
149.7900 95.5887451171875
150.0044 38.7417068481445
150.2600 36.5787734985352
151.0096 381.630523681641
151.6900 12.0687160491943
151.8637 37.0711822509766
151.9817 340.007904052734
152.1109 159.054672241211
152.2500 8.99316787719727
152.4600 10.7987718582153
153.0607 683.820617675781
153.8600 26.8245754241943
153.9600 237.286392211914
154.0490 330.274108886719
154.9502 761.222900390625
155.0152 38.19873046875
156.0185 632.070068359375
156.1124 31.1403617858887
156.8454 23.7875480651855
156.9675 202.311141967773
157.1300 32.6608543395996
157.7642 17.863525390625
157.8748 76.7759475708008
158.0022 149.155136108398
158.2200 13.4891414642334
158.9652 436.82373046875
159.8662 102.617309570313
160.8500 46.5440063476563
160.9700 91.8114624023438
161.8425 4.27129364013672
161.9842 53.6171493530273
162.8527 220.432830810547
163.8650 0.0219306945800781
164.0070 98.1769180297852
164.1000 69.0108947753906
164.9238 87.6906280517578
165.0779 198.272491455078
165.9212 108.687942504883
166.0400 108.08812713623
166.8979 150.141052246094
167.0243 185.550857543945
167.7942 34.4042129516602
167.9321 86.5831298828125
168.0000 211.853332519531
168.0984 155.575561523438
169.0389 5896.353515625
169.6800 14.8509664535522
169.8868 63.1422538757324
170.0600 1266.25036621094
170.1500 27.3058795928955
170.9100 194.577194213867
171.0078 66.650634765625
171.6961 4.42311191558838
171.9700 47.1993255615234
172.0600 7.29060792922974
172.1600 14.1550235748291
172.7871 38.7965507507324
172.8884 22.6701431274414
172.9963 12.0213756561279
173.8300 11.30357837677
174.0164 17.2808418273926
174.1800 7.28594160079956
174.7800 7.40648174285889
174.9872 69.0224151611328
175.7800 15.862771987915
175.9400 102.828521728516
176.0700 133.936508178711
176.9429 83.241096496582
177.0606 27.6190223693848
177.7573 8.92539978027344
177.9942 52.4222640991211
178.1614 23.2099094390869
178.8000 9.26065635681152
179.0079 55.2341918945313
179.1400 12.6120004653931
179.9800 192.741806030273
181.0225 4536.4482421875
181.7934 4.44290733337402
182.0266 765.035827636719
182.9078 53.080680847168
183.0356 142.858154296875
183.8620 71.8586959838867
183.9700 62.6244125366211
184.0600 88.4404296875
184.9326 276.861572265625
185.0712 70.8945465087891
185.9264 28.3920440673828
186.0911 21.3863201141357
186.7351 101.019073486328
186.8951 309.058868408203
187.8228 56.1919860839844
187.9300 17.6141166687012
188.0251 36.5514793395996
188.2400 6.9349217414856
188.8252 42.7763442993164
189.0028 252.32373046875
189.2400 9.95338344573975
189.9200 63.1121215820313
190.0800 48.0132598876953
190.9000 102.619476318359
191.1700 24.6495609283447
191.9100 107.189575195313
192.0200 72.9496078491211
192.1100 35.2356071472168
192.9553 196.016052246094
193.0537 58.4897003173828
193.6700 11.3141994476318
193.9247 10.1127853393555
194.0625 47.3847961425781
194.8922 435.970031738281
195.7209 28.3683319091797
195.9700 129.267272949219
196.0837 4.0671443939209
196.8761 330.954528808594
197.8700 66.0635528564453
197.9793 115.117332458496
198.6700 14.3987827301025
198.8453 28.1579895019531
199.0412 87.33544921875
199.8571 41.9589233398438
199.9903 288.246795654297
200.1100 63.0367202758789
200.7759 8.67169189453125
200.8806 47.5208435058594
200.9780 119.184844970703
201.0878 44.7017593383789
201.7971 23.8888721466064
201.9361 159.706939697266
202.0503 340.626220703125
202.9014 86.4826507568359
202.9931 239.586547851563
203.2062 8.89580154418945
203.7900 33.1148834228516
203.9800 247.425231933594
204.1900 48.9204940795898
204.9475 136.155212402344
205.0436 77.4989929199219
206.0747 11.2368803024292
206.8000 101.495094299316
206.9603 401.506103515625
207.9966 108.62223815918
208.1131 43.6799507141113
209.0216 27.9257049560547
209.1400 17.7996273040771
209.7415 24.12087059021
209.9100 61.2260284423828
210.9900 347.86083984375
212.0075 447.289978027344
212.8042 14.2583255767822
213.0375 888.315124511719
213.8971 100.215599060059
214.0304 543.691955566406
214.1600 30.7743473052979
214.9853 1313.3388671875
215.9800 763.683837890625
216.1000 55.2281150817871
216.9442 8.60400390625
217.9400 24.6943511962891
218.0455 73.8410491943359
218.9538 938.639892578125
219.8267 171.897003173828
220.7064 112.047584533691
220.9743 88.2628173828125
221.0624 37.0543518066406
221.6932 7.05385589599609
221.9355 4.88852500915527
222.7200 27.4485759735107
222.8315 61.7616729736328
222.9557 25.4225769042969
223.9164 91.6915740966797
224.0500 209.141891479492
224.1500 108.875732421875
224.7696 6.02010726928711
224.9030 161.903244018555
225.0211 144.201751708984
225.1183 72.0399398803711
225.9307 180.261352539063
226.0500 983.871520996094
226.1300 212.236038208008
227.0054 578.517456054688
227.1208 232.367965698242
227.9185 97.2130966186523
228.0300 387.106719970703
228.0900 375.372772216797
228.2000 36.253776550293
228.7700 14.9148836135864
228.9363 66.2929382324219
229.0606 304.5927734375
230.0598 335.478332519531
230.8746 68.4650115966797
231.0300 147.800170898438
231.3000 7.29414939880371
232.1099 11601.134765625
233.0073 1992.42724609375
234.0300 421.3759765625
235.0076 197.755859375
235.1300 13.934027671814
235.8500 40.4413833618164
235.9415 18.9419784545898
236.0400 0.562414169311523
236.9752 558.39404296875
238.0274 462.763977050781
239.0121 969.582153320313
239.9328 216.135177612305
240.0400 853.494140625
240.1294 283.302062988281
241.0502 3985.162109375
241.9900 444.975463867188
242.1104 587.050720214844
242.9300 107.463607788086
243.0500 98.5212631225586
243.1700 12.8081398010254
244.7100 8.68013095855713
244.9626 57.9853782653809
245.2300 10.7267255783081
247.9119 8.34940052032471
248.7858 5.70469284057617
248.9737 61.0258636474609
249.1336 9.68600273132324
249.8100 7.4628643989563
250.0000 84.1772689819336
250.8335 1.57157564163208
250.9695 221.506301879883
251.0500 122.16675567627
251.2200 28.3158092498779
251.9100 81.8203430175781
252.0400 219.912200927734
252.1100 241.741394042969
252.9677 246.514526367188
253.0804 894.921203613281
254.0799 4222.412109375
255.0792 2146.9345703125
255.1900 21.5617961883545
255.9500 50.8516578674316
256.0500 503.378540039063
256.1400 491.354461669922
256.5909 11.0954856872559
256.7731 23.9981250762939
256.9252 63.1370086669922
257.1000 100.240447998047
257.2000 36.0486068725586
257.8500 16.2158069610596
257.9980 74.160530090332
258.1100 7.39327716827393
258.9000 8.68172550201416
260.0400 7.39795827865601
261.8900 8.91247940063477
262.6900 18.7013931274414
262.8455 29.0357513427734
262.9600 36.4343948364258
263.8400 34.0876121520996
264.0000 39.3772010803223
264.1900 27.5487499237061
264.3300 19.1933364868164
264.8500 31.1731071472168
265.0195 225.072601318359
265.1500 114.562721252441
265.9406 182.410278320313
266.0900 555.674072265625
266.9256 34.7934799194336
267.0695 885.773132324219
268.0088 397.227752685547
268.1200 1833.26416015625
268.9475 185.755783081055
269.0700 2107.79956054688
269.2900 20.4629020690918
269.9200 7.91653394699097
270.0299 1261.42492675781
270.1200 1113.23583984375
271.0400 852.319519042969
272.0132 98.4395141601563
272.2100 9.76061344146729
272.8444 48.7649383544922
273.1600 3.6887481212616
274.0500 6.87813138961792
274.9275 140.278060913086
275.0170 76.4151153564453
275.8200 18.0368461608887
275.9561 25.1604881286621
276.7090 4.4354133605957
276.8141 55.8970108032227
277.8785 40.8538970947266
277.9812 82.2371673583984
278.1000 67.1206970214844
278.8200 44.9155616760254
278.9287 95.2229843139648
279.0383 71.1244964599609
279.2700 7.27540588378906
279.5300 7.05581378936768
279.8800 18.6759243011475
280.0301 487.45849609375
280.1500 212.864318847656
281.0548 877.066833496094
281.1488 100.885101318359
282.0200 657.663208007813
282.0991 586.503662109375
282.9573 73.1884536743164
283.0799 1952.05517578125
284.0296 282.185668945313
284.1000 5293.15869140625
284.9453 6.65359497070313
285.0639 1377.63037109375
285.9662 57.3324279785156
286.0825 248.446105957031
286.7337 4.8906831741333
286.8681 24.7428951263428
286.9963 54.5799407958984
287.1333 58.4333610534668
288.1000 7.02572154998779
288.2100 11.0735855102539
288.9625 61.8751525878906
289.7101 15.3507928848267
289.8569 32.0787200927734
291.0100 223.201934814453
291.8257 1.93363285064697
291.9480 52.6910133361816
292.0827 15.696964263916
292.9769 1240.55639648438
294.0252 411.608306884766
294.1600 36.2437438964844
294.8900 97.1402740478516
295.0078 211.086669921875
295.1800 7.98133277893066
295.8452 12.7199974060059
295.9874 169.895812988281
296.0902 574.720764160156
296.9740 432.658508300781
297.0455 205.766799926758
297.1714 26.34153175354
298.0998 9423.11328125
298.1800 429.938018798828
298.9455 159.344345092773
299.0600 1458.80627441406
299.1500 746.077758789063
300.0200 331.233215332031
300.1200 6.98925638198853
300.8547 28.7744998931885
300.9900 9.48917961120605
301.1000 8.82936477661133
302.9962 1.1881799697876
303.1900 17.0086517333984
303.9377 4.21628761291504
305.1900 8.20388984680176
306.7511 1.52589988708496
306.8967 54.4998092651367
307.0265 6.60393905639648
307.2300 7.47748708724976
307.7994 6.24250888824463
307.9500 30.881519317627
308.0800 67.6933975219727
308.2100 15.1583585739136
308.8500 23.9556217193604
309.1000 42.0660171508789
309.9000 57.8756141662598
310.0600 117.936447143555
310.2000 37.6887893676758
310.7600 13.0944890975952
310.9165 37.9931259155273
311.0100 29.7675113677979
311.8000 23.5416393280029
311.9800 85.4943161010742
312.1300 110.88744354248
312.2500 53.5185661315918
312.9900 64.450813293457
313.2400 8.75219631195068
314.7300 35.8580131530762
314.9100 20.6844711303711
318.1600 7.3724308013916
318.9214 1.72587585449219
321.9200 19.4948902130127
322.0800 41.496395111084
322.1900 11.2255563735962
324.1600 55.7218055725098
326.0500 75.6569213867188
326.2800 17.2543926239014
326.8875 5.73895502090454
329.0177 39.5683746337891
329.9500 9.00687789916992
330.2100 9.38769912719727
330.7386 4.16193199157715
330.9100 20.1515445709229
331.0500 6.94669485092163
334.7000 7.81554889678955
334.9300 29.9262809753418
335.0200 8.83357334136963
335.9700 57.233959197998
336.1000 90.7992324829102
336.9000 7.35639238357544
337.0600 41.3496589660645
337.9000 11.8975133895874
338.0700 91.4232711791992
338.8900 8.34619426727295
339.0200 11.0659322738647
339.9300 32.4167251586914
340.0200 207.525482177734
340.1400 276.803405761719
340.9000 55.4249153137207
341.0600 59.9400482177734
341.2200 12.1451454162598
341.9900 7.55299663543701
342.9000 10.0395164489746
343.0300 10.8675098419189
344.0100 116.67456817627
344.1200 205.502212524414
344.2300 123.718627929688
344.5200 7.11139726638794
345.0117 148.193054199219
345.1400 319.298614501953
345.2600 60.0671272277832
346.1100 78.7452697753906
346.3200 12.5023231506348
346.9400 15.3380031585693
348.8153 22.0178356170654
349.0953 7.99834728240967
350.0000 7.30307292938232
351.1400 26.1103897094727
351.8800 17.0533123016357
351.9800 29.6145401000977
352.0776 55.7583503723145
352.2300 42.5365867614746
352.7800 7.48011302947998
352.9068 84.1384963989258
353.0800 78.674690246582
353.1800 92.1395492553711
354.0500 285.313201904297
354.1900 320.129272460938
354.8800 13.7223215103149
355.0456 133.525772094727
355.1600 103.728462219238
356.1700 10313.3271484375
357.1100 804.73828125
357.1800 2100.84155273438
358.0800 602.416870117188
358.1400 2847.18310546875
358.2500 64.6561737060547
358.9500 32.1983985900879
359.1200 766.16064453125
359.2100 278.052276611328
359.7700 8.55927753448486
359.9600 8.88135623931885
360.1000 133.989685058594
360.9400 8.54850101470947
361.1400 9.82651996612549
365.8800 8.85772800445557
366.8937 1.27254915237427
367.1311 8.46466827392578
370.2300 7.38384103775024
370.9800 34.5285758972168
371.1417 17.713939666748
371.2400 50.0638046264648
371.3400 17.4410667419434
372.1400 1844.15734863281
372.1800 6493.8779296875
373.1700 16715.841796875
374.1800 4527.9814453125
375.0400 77.5806198120117
375.1300 273.029815673828
375.2500 268.667449951172
376.0900 28.1546878814697
376.2700 10.1872673034668
451.0000 8.3516960144043
