#"+EI Scan (rt: 8.979-9.102 min, 22 scans) R2M1.D  Subtract "
#Point,X(Thompsons),Y(Counts)
41.0582 3932.77490234375
41.9373 119.065589904785
42.0775 155.485687255859
42.2474 5.66849040985107
42.9420 105.224807739258
43.0705 1704.65148925781
43.9825 145.678833007813
44.9500 230.295547485352
45.8700 31.2046585083008
46.0600 48.5834007263184
46.2000 20.1441879272461
46.9592 259.093322753906
47.0409 793.177734375
48.1500 12.0742340087891
48.8352 16.2498664855957
49.1400 11.3139734268188
49.8679 31.1733779907227
49.9898 101.746047973633
50.1138 54.0009918212891
50.8574 42.5977096557617
50.9971 306.220031738281
51.8239 22.7579822540283
51.9500 78.4247894287109
52.0600 55.1766014099121
52.9473 166.048736572266
53.0636 163.802368164063
53.9200 13.0244150161743
54.0244 80.3556518554688
54.2500 12.3346319198608
55.0462 481.127349853516
56.0726 23.0007095336914
56.9800 237.443710327148
57.0549 6.65058898925781
57.1700 27.719633102417
57.8700 21.4061965942383
58.1340 72.5909576416016
59.0300 1200.9697265625
59.8991 57.6388626098633
60.0450 47.8904075622559
60.8600 32.8561668395996
60.9774 195.830841064453
61.0803 226.617233276367
61.8482 80.7294158935547
61.9423 113.618698120117
62.0656 3.64240264892578
62.8038 13.6354389190674
62.9414 260.037841796875
63.0512 351.25
63.8518 16.8415946960449
63.9677 154.102661132813
64.0800 11.8097305297852
64.7755 3.16864967346191
64.9164 99.9521179199219
65.0444 206.490158081055
65.9792 24.2908725738525
66.0900 8.17205142974854
66.8498 61.7279014587402
66.9357 6.80120849609375
67.0600 89.3301544189453
67.8200 9.49934577941895
68.9922 308.467712402344
69.0911 958.981201171875
69.9500 18.0270385742188
70.0600 54.0350456237793
70.2100 7.87809133529663
70.8428 24.1180725097656
71.0000 40.880443572998
72.0789 1.61969661712646
72.2300 7.71046781539917
73.0354 588.78173828125
73.8751 3.57344055175781
73.9869 244.858779907227
74.9461 167.686706542969
75.0207 361.290161132813
75.8200 13.9390344619751
75.9430 250.380157470703
76.0800 381.207763671875
77.0200 1371.8466796875
78.0200 1010.06494140625
78.8975 190.431274414063
79.1330 17.8601608276367
79.8800 49.2210693359375
80.9828 277.456115722656
81.9731 59.0449371337891
82.0825 8.64076232910156
82.2500 30.0840950012207
82.9403 33.1817169189453
83.1112 53.463005065918
83.4500 7.46725797653198
84.8364 73.0326614379883
85.0524 23.9402198791504
85.1800 12.6415719985962
85.9216 87.7084350585938
86.1200 29.0464363098145
86.8000 23.5177707672119
86.9087 90.4501953125
87.0324 121.135688781738
87.1300 49.4591064453125
87.8278 75.9657135009766
87.9700 349.9248046875
88.0982 95.725227355957
89.0098 2305.51293945313
89.9154 65.6963348388672
90.0200 276.272979736328
90.8928 218.197891235352
91.0000 389.387451171875
91.7941 11.5983095169067
91.9672 54.4243240356445
92.1071 14.6510877609253
93.0600 77.1325836181641
93.1573 9.45243263244629
93.6800 13.134765625
93.8400 9.4707145690918
93.9890 8.09321594238281
94.1136 17.3868141174316
94.6400 33.780891418457
94.7827 78.8388061523438
94.9374 43.421516418457
95.4000 8.12837409973145
95.5300 14.5694923400879
96.0329 21.1165542602539
96.1290 23.2880020141602
96.7395 13.9368133544922
97.0300 108.653274536133
97.8400 30.3966445922852
97.9329 43.1555480957031
98.0864 43.1555480957031
98.6800 9.08566188812256
98.8900 97.2065887451172
99.0400 54.9338264465332
99.8300 49.0311050415039
99.9600 86.9958877563477
100.0532 33.5521774291992
100.1800 68.2783889770508
100.9798 764.844360351563
101.0700 428.178436279297
101.8796 109.329948425293
102.0301 2385.83154296875
102.1600 62.7845687866211
102.9168 423.478912353516
103.0280 488.668548583984
103.8175 96.7503662109375
103.9667 138.601806640625
104.1474 31.1449089050293
104.9174 62.3320541381836
105.1500 4.16632223129272
105.6600 34.6354713439941
105.8600 15.9766998291016
105.9600 23.8365783691406
106.0700 39.6777496337891
106.4200 56.2278175354004
106.7100 114.964202880859
106.8404 68.7731170654297
107.1747 60.759895324707
107.5300 51.103931427002
107.7802 23.8749809265137
107.8600 22.3516101837158
107.9961 11.6811809539795
108.1700 42.9286346435547
109.0000 479.042236328125
110.0110 104.629302978516
110.1181 19.7695217132568
110.8589 12.7262344360352
110.9768 46.5055618286133
111.0747 44.2980041503906
111.2000 8.30284023284912
111.8600 138.206802368164
112.0181 34.7659606933594
112.1600 29.1767635345459
112.7800 16.3746433258057
112.8817 153.857269287109
112.9747 518.754455566406
113.0895 78.7819137573242
113.2200 60.6490097045898
113.3700 13.4893407821655
113.8500 246.148834228516
113.9600 258.465850830078
114.0797 697.142150878906
114.2000 29.6064682006836
115.0391 12693.630859375
116.0301 5674.474609375
117.0161 1079.44519042969
117.6200 15.7048244476318
117.8100 35.2434997558594
117.9572 88.5182342529297
118.0838 30.0939407348633
118.2400 25.9338150024414
118.4300 24.8914470672607
118.8141 149.123199462891
118.9458 44.6591720581055
119.0858 92.6864013671875
119.3300 52.333423614502
119.4600 76.5072555541992
119.6900 192.503219604492
119.8944 23.5180206298828
120.1400 100.513984680176
120.2800 9.81481075286865
120.4000 163.699020385742
120.5800 288.191864013672
120.6991 260.246246337891
121.0873 213.488265991211
121.2700 29.0946826934814
121.4900 34.9014625549316
121.7500 64.5104904174805
122.1100 45.7279510498047
122.5976 5.43467807769775
122.7707 52.6487655639648
122.9915 73.9088973999023
123.8437 18.9400596618652
124.6849 17.7628059387207
124.8400 112.201477050781
125.8168 38.0397567749023
125.9496 269.603637695313
126.0987 431.08837890625
126.2300 63.6643943786621
126.4116 13.2448310852051
126.9588 945.008972167969
127.0500 1299.33227539063
127.1886 96.8761138916016
127.9800 1700.12841796875
128.0500 1345.53173828125
128.9610 601.773498535156
129.0398 1948.998046875
129.8780 137.576553344727
130.0193 1814.05505371094
130.7200 29.4561386108398
130.9645 211.653594970703
131.0792 126.041160583496
131.8483 100.610618591309
131.9421 61.6198272705078
132.0636 60.9292030334473
132.1600 69.0840530395508
132.3900 64.0398330688477
132.6235 43.0690612792969
132.7600 122.590553283691
132.8657 68.5115356445313
133.1211 119.782508850098
133.4200 49.0196304321289
133.5600 717.082702636719
133.7183 268.687622070313
134.1100 174.616256713867
134.3100 131.350479125977
134.4400 67.4926452636719
134.6000 669.807800292969
134.6900 561.576293945313
135.0158 93.6284790039063
135.1400 64.2811584472656
135.6008 134.523223876953
135.7700 93.4753952026367
135.8723 14.7498626708984
136.2100 26.1586589813232
137.0000 2755.3232421875
138.0200 719.349304199219
139.0251 5385.90966796875
139.7379 8.73723602294922
139.9672 560.555114746094
140.0600 1336.49682617188
141.0694 11333.3759765625
141.6200 46.2937507629395
141.7699 511.992340087891
141.9100 433.483184814453
142.0684 495.642486572266
142.8861 128.072509765625
143.0122 875.492492675781
143.1100 207.7900390625
144.0399 10393.6103515625
144.8858 129.2685546875
145.0120 936.867065429688
145.7966 56.3294334411621
145.9070 22.3070487976074
146.0400 61.335693359375
146.6288 13.2574977874756
146.9020 100.629760742188
147.0365 7.43962860107422
147.1876 3.11844635009766
147.3500 42.7718620300293
147.5100 77.9965744018555
148.3832 45.4250907897949
148.5200 1821.48327636719
148.6003 798.06298828125
149.1300 146.054748535156
149.2800 27.5454425811768
149.5900 24.2735214233398
149.8000 75.756103515625
149.9156 64.7997360229492
150.0600 82.8045120239258
150.2000 24.1652450561523
150.5200 14.9741125106812
150.8843 87.6650848388672
150.9900 277.023620605469
151.0955 29.3666458129883
151.8691 94.4106063842773
151.9932 352.116180419922
152.1100 150.988708496094
152.8997 136.389404296875
153.0172 571.014770507813
153.8952 238.361099243164
154.0282 402.577545166016
155.0082 1095.56481933594
155.7679 19.8118476867676
156.0125 573.988952636719
156.1292 10.5045757293701
156.8543 98.7785491943359
156.9908 238.023101806641
157.9458 178.432846069336
158.0500 195.131881713867
158.9647 679.15771484375
159.8000 32.9396934509277
159.8808 298.139007568359
160.9478 455.883087158203
161.8337 10.2531147003174
161.9600 77.5117721557617
162.0875 24.0267181396484
162.9533 520.514831542969
163.7423 53.8876266479492
163.9127 51.3545532226563
164.0500 102.895629882813
164.1500 26.4965896606445
164.9076 153.134872436523
165.0398 252.880386352539
165.6964 3.35808849334717
165.9200 98.908821105957
166.0164 110.55973815918
166.2000 15.0498504638672
166.9700 617.325744628906
167.0526 35.7622451782227
167.9110 189.768585205078
168.0400 346.778411865234
169.0400 7011.44384765625
170.0200 1605.56848144531
170.1000 49.2083168029785
170.8607 277.103637695313
171.7700 13.583456993103
171.8969 53.0982818603516
172.0400 9.65247249603271
172.3200 10.6690979003906
172.6900 34.2394790649414
172.7984 61.2401313781738
172.9195 37.214469909668
173.1400 19.2399578094482
173.3000 7.31055927276611
173.8900 42.5069770812988
174.0100 29.8795146942139
174.2200 12.0617761611938
174.7300 9.15937519073486
174.8900 9.69972610473633
175.0223 47.3573112487793
175.1800 21.583459854126
175.7600 20.4665203094482
175.8982 133.737518310547
176.0200 161.058807373047
176.9267 88.1000137329102
177.0413 113.495864868164
177.1400 27.2417793273926
177.8460 46.6890296936035
177.9700 71.8279113769531
178.0500 35.4552001953125
178.9117 117.644660949707
179.0437 36.8519325256348
179.9089 64.633186340332
180.0209 99.7000274658203
180.1400 22.5297164916992
181.0299 5552.08544921875
181.9453 290.747375488281
182.0600 614.032287597656
182.7391 16.6723098754883
182.8661 37.4647521972656
182.9565 47.6663436889648
183.0600 146.258850097656
183.7300 16.291618347168
183.8700 95.3984909057617
184.0060 113.045906066895
184.1000 64.1752853393555
184.7146 2.7489013671875
184.8791 31.5966491699219
184.9924 134.245208740234
185.1800 18.8714561462402
185.8696 70.9743576049805
186.0900 64.953498840332
186.3200 39.1663970947266
186.5700 55.8199005126953
186.7048 46.3907699584961
186.8800 191.538696289063
187.0381 187.368453979492
187.8594 36.5327987670898
188.0000 59.1373138427734
188.0978 35.036319732666
188.8164 35.4740180969238
188.9768 252.26838684082
189.7100 8.45879650115967
189.9000 44.9372520446777
190.0764 54.3261871337891
190.9337 208.536712646484
191.0485 48.364990234375
191.8200 32.7183532714844
191.9628 66.1763381958008
192.1100 18.9597911834717
192.9043 250.301986694336
194.0007 105.516723632813
195.0100 479.870025634766
195.7200 18.4058856964111
195.8300 13.5324935913086
195.9843 114.055397033691
196.8600 326.491058349609
197.0466 82.9777069091797
198.0006 211.689910888672
198.9565 249.053100585938
199.7508 16.3903369903564
199.8746 122.111175537109
200.0100 233.69091796875
200.1200 19.1259937286377
200.2500 17.5283374786377
200.7501 0.608692169189453
200.9298 377.129730224609
201.0700 86.60009765625
201.7246 0.986650466918945
201.8681 36.1559677124023
202.0118 458.613891601563
202.9400 218.361419677734
203.0611 81.768196105957
203.8631 30.392017364502
204.0300 195.672668457031
204.1600 76.8125152587891
204.8658 28.2786483764648
204.9917 173.066772460938
205.9489 18.1209888458252
207.0900 321.431915283203
207.8509 12.5537376403809
208.0057 10.3725509643555
208.1144 20.1678504943848
208.4400 7.57529306411743
209.0028 82.9011306762695
209.7959 22.4912967681885
210.0469 56.3954086303711
210.2295 4.12130260467529
210.9953 552.9169921875
211.9102 141.493591308594
212.0151 282.719055175781
213.0314 924.890502929688
213.1027 168.424774169922
213.9440 45.0545043945313
214.0400 760.488159179688
214.9800 1546.5517578125
215.9598 357.557525634766
216.9064 446.866363525391
217.9041 139.253326416016
218.0300 49.4587097167969
218.1600 9.61310005187988
218.9400 294.861083984375
219.8480 44.6609802246094
219.9847 23.8898620605469
220.6885 38.9083633422852
220.8055 2.99673461914063
220.9414 47.1565017700195
221.8965 14.0518493652344
222.2000 10.2214956283569
222.7328 11.6108322143555
222.8791 193.844787597656
223.5200 6.97014188766479
223.7876 23.7640724182129
223.9100 153.931533813477
224.0642 201.879257202148
224.7467 27.5489826202393
224.9887 163.934936523438
225.0911 199.908203125
225.8483 15.752721786499
225.9800 320.282073974609
226.0600 1344.29577636719
226.9482 322.852203369141
227.0606 660.339111328125
227.8500 30.0668048858643
228.0289 590.724365234375
228.1100 387.985626220703
228.9271 230.143951416016
229.0448 391.876983642578
229.7594 10.0658464431763
229.9479 110.58251953125
230.0366 157.047927856445
230.1611 20.784610748291
230.8942 87.8544311523438
230.9884 81.6221008300781
231.0790 127.818466186523
232.1100 13862.1669921875
233.0140 2822.4580078125
233.9931 836.453308105469
234.9609 245.352752685547
235.1100 84.0153503417969
235.7553 1.47842693328857
235.8800 70.9732894897461
235.9723 11.5535430908203
236.9754 1061.54248046875
237.9649 435.391723632813
238.9533 456.99169921875
239.0516 429.045013427734
239.9429 106.288391113281
240.0600 1640.97351074219
240.9959 1124.31762695313
241.0800 3316.65209960938
241.8300 52.3850860595703
241.9514 101.373588562012
242.0500 1113.17077636719
242.9400 80.3175277709961
243.0685 217.921173095703
243.8600 9.4493293762207
244.0222 6.04751968383789
244.8720 9.18880844116211
244.9814 77.869743347168
245.1011 1.74499607086182
246.6856 1.53197002410889
247.9807 14.353853225708
248.1200 47.6453857421875
248.8200 16.1705551147461
248.9216 41.731559753418
249.0400 53.2650375366211
249.8400 26.8521900177002
249.9500 66.0242385864258
250.8600 124.162574768066
250.9780 177.422332763672
251.0809 185.394470214844
251.9800 329.253540039063
252.0900 197.31689453125
252.2000 9.92879390716553
253.0202 761.890014648438
253.1100 502.634582519531
254.0599 2538.93603515625
254.1100 2123.23071289063
254.9906 287.503814697266
255.0600 2261.37939453125
255.2100 20.8792037963867
255.9400 98.7336959838867
256.0800 1174.39660644531
257.0007 355.751281738281
257.1600 92.0307159423828
257.8600 63.2785606384277
258.0313 36.6305694580078
258.7427 48.8612289428711
258.8535 19.5742893218994
258.9961 7.76344871520996
260.1100 7.73987293243408
260.7077 6.94320774078369
262.0600 17.8079242706299
262.7329 5.92090034484863
262.9138 33.1606597900391
263.0600 9.17256259918213
263.8500 34.3473472595215
264.0600 159.196792602539
264.1700 14.8644113540649
264.7900 72.0649337768555
264.9500 215.299118041992
265.0900 107.746223449707
265.8400 67.0802001953125
266.0000 264.476440429688
266.0900 442.637115478516
266.8100 24.7645740509033
267.0192 570.670227050781
267.0997 555.152770996094
267.9400 157.424301147461
268.0800 2462.86669921875
269.0585 2923.95239257813
269.9700 46.841064453125
270.0700 2821.85205078125
270.9200 67.2749938964844
271.0284 737.966247558594
271.1359 67.4447174072266
271.5900 8.68120956420898
271.9133 38.7701835632324
271.9900 61.7918853759766
272.1300 61.5921478271484
272.8300 297.675750732422
273.0515 14.9841537475586
273.7648 2.95653915405273
273.9633 15.8629341125488
274.1600 8.09263706207275
274.6400 46.9989471435547
274.9436 163.658203125
275.5000 8.6261568069458
275.7063 19.2344799041748
275.8518 9.50594139099121
275.9886 66.0429153442383
276.0900 11.6312265396118
276.8630 148.971069335938
277.7611 0.937170028686523
277.9068 34.8956146240234
278.0400 119.452545166016
278.1500 25.2175979614258
278.7581 66.8560943603516
278.9851 119.246231079102
279.7100 19.1010284423828
279.8500 13.9770345687866
280.0300 434.159393310547
280.1400 381.958282470703
280.2500 22.0270977020264
280.9500 146.637619018555
281.1051 808.409729003906
281.8776 6.3616623878479
282.0300 892.136108398438
282.1001 592.597351074219
282.7000 15.4321365356445
282.8930 11.768177986145
283.0200 980.637268066406
283.0901 1416.21374511719
284.0900 6900.541015625
285.0703 2028.2451171875
285.9819 160.483261108398
286.0915 105.340599060059
286.6100 18.9737606048584
286.8285 33.1609077453613
286.9952 43.4913139343262
287.1800 29.2579288482666
287.9636 3.34148168563843
288.9755 247.077758789063
289.7600 42.3170623779297
290.0290 93.2253875732422
290.9927 197.969268798828
291.1400 15.5756397247314
291.9237 82.6087951660156
292.0400 32.3764801025391
292.8966 371.173980712891
292.9902 19.951171875
293.9600 345.743286132813
294.0406 299.501220703125
294.1700 95.7215347290039
294.9533 50.7137603759766
295.0600 255.544860839844
295.8480 2.73710250854492
295.9780 267.867095947266
296.1100 545.418701171875
297.0033 666.942749023438
297.0700 239.930953979492
298.1000 11503.0654296875
299.0405 1035.40832519531
299.1000 1878.53588867188
299.8300 39.7347030639648
299.9800 172.099609375
300.1000 166.043182373047
300.2000 8.81760025024414
300.3500 12.5852298736572
300.9600 58.6676864624023
301.1100 37.6733322143555
302.9336 17.1734733581543
303.0755 22.9693412780762
303.8600 8.46220302581787
304.0000 9.70072650909424
304.1300 8.90637588500977
304.9128 34.1120300292969
305.9100 7.15589761734009
306.9200 129.456893920898
307.8900 43.8708610534668
308.0475 66.1528625488281
308.2000 43.1420021057129
308.9039 9.33664131164551
309.1100 15.7171268463135
309.9400 128.445358276367
310.0900 91.1915969848633
310.9255 107.106636047363
311.0200 28.8183422088623
311.1310 1.62869453430176
311.9300 169.645797729492
312.0673 24.4003677368164
312.1500 203.301086425781
312.9900 61.8043327331543
313.2500 12.5457916259766
314.7000 7.07926034927368
314.8912 29.7238941192627
315.0400 13.4702663421631
315.2100 10.2650995254517
315.8900 14.0383386611938
316.9700 8.18074703216553
318.9100 7.15976285934448
320.0800 20.9461669921875
321.9100 22.9338493347168
322.1400 10.0639181137085
322.3300 10.1107606887817
323.0700 6.98940849304199
323.9400 7.4791111946106
324.0500 74.5912780761719
324.1400 31.4200439453125
325.1200 10.1187257766724
325.8300 21.4419078826904
325.9500 45.9254417419434
326.0400 18.2567272186279
328.8921 25.6276779174805
329.0500 53.8962898254395
329.1700 34.9573631286621
329.8800 49.4833106994629
330.0588 17.9695796966553
330.2300 19.5226249694824
330.8500 6.3249363899231
330.9600 23.8844680786133
331.1900 10.4049043655396
331.8200 7.53458452224731
332.7700 19.3845767974854
332.8900 15.7241153717041
333.6600 7.03252840042114
334.0100 14.9458703994751
335.1200 7.79371452331543
335.6900 7.02006196975708
335.8200 28.55810546875
335.9700 36.2905616760254
336.0800 53.241138458252
336.2100 9.4037036895752
336.9700 8.96059703826904
337.8400 21.9451465606689
337.9400 17.9682807922363
338.1300 55.5019264221191
338.9300 7.5369291305542
339.2300 8.55550003051758
340.0400 190.234313964844
340.1600 389.76953125
340.8600 33.5313758850098
341.0200 46.9899635314941
341.1400 67.0474166870117
342.0800 7.47877168655396
343.1800 8.80476570129395
343.9900 15.3216485977173
344.1100 345.586883544922
344.2300 166.334915161133
344.9316 64.2238006591797
345.1300 397.942352294922
345.3100 27.5907592773438
345.5600 10.6072750091553
345.9700 20.7823925018311
346.1100 64.1225509643555
346.3200 8.9956750869751
347.0400 33.5426979064941
347.2200 6.93310689926147
348.8500 84.3922882080078
348.9672 44.6084671020508
349.9600 9.92295074462891
350.1300 9.15700912475586
351.0200 39.5275115966797
351.9400 32.6034698486328
352.1200 102.30322265625
352.8391 66.2218551635742
352.9731 87.8119506835938
353.0900 138.836791992188
353.2300 23.8533191680908
353.3600 9.78627014160156
353.7900 10.5160961151123
353.9400 83.1029357910156
354.0600 271.193817138672
354.1800 345.026641845703
355.0200 99.6332931518555
355.1800 271.673889160156
356.1800 11289.271484375
356.9000 18.302074432373
357.0600 125.847534179688
357.1700 3102.66650390625
357.3300 25.6453323364258
358.0400 203.498870849609
358.1400 3802.90844726563
358.2500 52.2815589904785
358.9200 12.3155479431152
359.1300 996.457275390625
359.2500 52.705135345459
359.8900 16.3599815368652
360.0200 64.7688293457031
360.1500 89.3946075439453
366.5700 7.2655029296875
366.9848 32.8297653198242
369.0500 7.28341817855835
370.8548 14.7234210968018
370.9800 64.3190231323242
371.0900 67.7030334472656
371.2100 17.1659717559814
372.1800 9354.6171875
373.1800 19275.994140625
374.1700 4904.642578125
375.0200 171.98176574707
375.1400 198.229202270508
375.2200 302.020965576172
375.3200 88.7045669555664
376.1100 20.1314182281494
376.2200 20.0131511688232
387.0707 8.58012580871582
